"20-30mM-CB20mM - RawData"
"Wavelength nm."	"Abs."
300.00	0.1379
301.00	0.1394
302.00	0.1408
303.00	0.1425
304.00	0.1437
305.00	0.1449
306.00	0.1462
307.00	0.1480
308.00	0.1502
309.00	0.1523
310.00	0.1540
311.00	0.1555
312.00	0.1574
313.00	0.1591
314.00	0.1610
315.00	0.1635
316.00	0.1661
317.00	0.1681
318.00	0.1705
319.00	0.1726
320.00	0.1747
321.00	0.1765
322.00	0.1785
323.00	0.1802
324.00	0.1821
325.00	0.1841
326.00	0.1861
327.00	0.1881
328.00	0.1901
329.00	0.1920
330.00	0.1937
331.00	0.1949
332.00	0.1958
333.00	0.1975
334.00	0.1993
335.00	0.2013
336.00	0.2038
337.00	0.2067
338.00	0.2085
339.00	0.2103
340.00	0.2121
341.00	0.2136
342.00	0.2152
343.00	0.2171
344.00	0.2187
345.00	0.2204
346.00	0.2218
347.00	0.2232
348.00	0.2243
349.00	0.2255
350.00	0.2264
351.00	0.2276
352.00	0.2286
353.00	0.2296
354.00	0.2306
355.00	0.2316
356.00	0.2327
357.00	0.2338
358.00	0.2348
359.00	0.2356
360.00	0.2364
361.00	0.2368
362.00	0.2368
363.00	0.2377
364.00	0.2387
365.00	0.2399
366.00	0.2412
367.00	0.2432
368.00	0.2440
369.00	0.2451
370.00	0.2463
371.00	0.2480
372.00	0.2486
373.00	0.2494
374.00	0.2499
375.00	0.2503
376.00	0.2502
377.00	0.2509
378.00	0.2518
379.00	0.2527
380.00	0.2537
381.00	0.2549
382.00	0.2561
383.00	0.2576
384.00	0.2591
385.00	0.2605
386.00	0.2620
387.00	0.2634
388.00	0.2646
389.00	0.2658
390.00	0.2672
391.00	0.2687
392.00	0.2701
393.00	0.2715
394.00	0.2726
395.00	0.2737
396.00	0.2747
397.00	0.2757
398.00	0.2766
399.00	0.2776
400.00	0.2786
401.00	0.2798
402.00	0.2811
403.00	0.2827
404.00	0.2842
405.00	0.2859
406.00	0.2875
407.00	0.2891
408.00	0.2905
409.00	0.2920
410.00	0.2934
411.00	0.2947
412.00	0.2958
413.00	0.2968
414.00	0.2978
415.00	0.2986
416.00	0.2995
417.00	0.3002
418.00	0.3007
419.00	0.3008
420.00	0.3009
421.00	0.3007
422.00	0.3004
423.00	0.3000
424.00	0.2996
425.00	0.2992
426.00	0.2987
427.00	0.2984
428.00	0.2980
429.00	0.2977
430.00	0.2974
431.00	0.2972
432.00	0.2970
433.00	0.2968
434.00	0.2967
435.00	0.2966
436.00	0.2963
437.00	0.2958
438.00	0.2950
439.00	0.2942
440.00	0.2934
441.00	0.2926
442.00	0.2920
443.00	0.2915
444.00	0.2909
445.00	0.2902
446.00	0.2896
447.00	0.2890
448.00	0.2883
449.00	0.2879
450.00	0.2876
451.00	0.2875
452.00	0.2876
453.00	0.2879
454.00	0.2881
455.00	0.2885
456.00	0.2888
457.00	0.2892
458.00	0.2897
459.00	0.2902
460.00	0.2908
461.00	0.2915
462.00	0.2922
463.00	0.2926
464.00	0.2932
465.00	0.2936
466.00	0.2941
467.00	0.2945
468.00	0.2952
469.00	0.2956
470.00	0.2960
471.00	0.2964
472.00	0.2967
473.00	0.2971
474.00	0.2975
475.00	0.2980
476.00	0.2985
477.00	0.2991
478.00	0.2995
479.00	0.3000
480.00	0.3005
481.00	0.3008
482.00	0.3012
483.00	0.3016
484.00	0.3018
485.00	0.3021
486.00	0.3023
487.00	0.3025
488.00	0.3024
489.00	0.3024
490.00	0.3024
491.00	0.3022
492.00	0.3022
493.00	0.3023
494.00	0.3023
495.00	0.3022
496.00	0.3022
497.00	0.3021
498.00	0.3021
499.00	0.3022
500.00	0.3023
501.00	0.3022
502.00	0.3022
503.00	0.3020
504.00	0.3018
505.00	0.3016
506.00	0.3013
507.00	0.3009
508.00	0.3006
509.00	0.3001
510.00	0.2994
511.00	0.2988
512.00	0.2981
513.00	0.2972
514.00	0.2964
515.00	0.2955
516.00	0.2946
517.00	0.2937
518.00	0.2926
519.00	0.2916
520.00	0.2906
521.00	0.2897
522.00	0.2887
523.00	0.2876
524.00	0.2865
525.00	0.2852
526.00	0.2841
527.00	0.2829
528.00	0.2819
529.00	0.2813
530.00	0.2809
531.00	0.2795
532.00	0.2783
533.00	0.2771
534.00	0.2756
535.00	0.2738
536.00	0.2730
537.00	0.2720
538.00	0.2709
539.00	0.2698
540.00	0.2685
541.00	0.2673
542.00	0.2663
543.00	0.2653
544.00	0.2645
545.00	0.2636
546.00	0.2627
547.00	0.2616
548.00	0.2607
549.00	0.2595
550.00	0.2586
551.00	0.2577
552.00	0.2567
553.00	0.2557
554.00	0.2545
555.00	0.2534
556.00	0.2525
557.00	0.2515
558.00	0.2507
559.00	0.2499
560.00	0.2490
561.00	0.2480
562.00	0.2471
563.00	0.2463
564.00	0.2453
565.00	0.2444
566.00	0.2434
567.00	0.2423
568.00	0.2412
569.00	0.2403
570.00	0.2395
571.00	0.2388
572.00	0.2383
573.00	0.2375
574.00	0.2363
575.00	0.2349
576.00	0.2334
577.00	0.2316
578.00	0.2303
579.00	0.2293
580.00	0.2282
581.00	0.2271
582.00	0.2260
583.00	0.2248
584.00	0.2235
585.00	0.2222
586.00	0.2210
587.00	0.2198
588.00	0.2186
589.00	0.2174
590.00	0.2161
591.00	0.2147
592.00	0.2133
593.00	0.2120
594.00	0.2108
595.00	0.2096
596.00	0.2083
597.00	0.2070
598.00	0.2058
599.00	0.2046
600.00	0.2034
601.00	0.2022
602.00	0.2011
603.00	0.1998
604.00	0.1985
605.00	0.1974
606.00	0.1962
607.00	0.1950
608.00	0.1940
609.00	0.1930
610.00	0.1920
611.00	0.1909
612.00	0.1898
613.00	0.1886
614.00	0.1874
615.00	0.1865
616.00	0.1857
617.00	0.1851
618.00	0.1842
619.00	0.1834
620.00	0.1824
621.00	0.1814
622.00	0.1806
623.00	0.1802
624.00	0.1797
625.00	0.1792
626.00	0.1787
627.00	0.1779
628.00	0.1774
629.00	0.1771
630.00	0.1769
631.00	0.1765
632.00	0.1759
633.00	0.1750
634.00	0.1741
635.00	0.1734
636.00	0.1729
637.00	0.1726
638.00	0.1724
639.00	0.1722
640.00	0.1718
641.00	0.1715
642.00	0.1714
643.00	0.1712
644.00	0.1710
645.00	0.1708
646.00	0.1706
647.00	0.1704
648.00	0.1703
649.00	0.1703
650.00	0.1703
651.00	0.1704
652.00	0.1705
653.00	0.1705
654.00	0.1705
655.00	0.1707
656.00	0.1706
657.00	0.1706
658.00	0.1706
659.00	0.1707
660.00	0.1706
661.00	0.1706
662.00	0.1706
663.00	0.1706
664.00	0.1704
665.00	0.1705
666.00	0.1704
667.00	0.1704
668.00	0.1703
669.00	0.1704
670.00	0.1713
671.00	0.1718
672.00	0.1720
673.00	0.1725
674.00	0.1730
675.00	0.1724
676.00	0.1725
677.00	0.1726
678.00	0.1727
679.00	0.1729
680.00	0.1728
681.00	0.1732
682.00	0.1737
683.00	0.1741
684.00	0.1742
685.00	0.1747
686.00	0.1747
687.00	0.1748
688.00	0.1748
689.00	0.1750
690.00	0.1748
691.00	0.1754
692.00	0.1756
693.00	0.1758
694.00	0.1759
695.00	0.1763
696.00	0.1760
697.00	0.1760
698.00	0.1759
699.00	0.1759
700.00	0.1758
701.00	0.1761
702.00	0.1762
703.00	0.1766
704.00	0.1768
705.00	0.1770
706.00	0.1771
707.00	0.1770
708.00	0.1773
709.00	0.1776
710.00	0.1778
711.00	0.1780
712.00	0.1785
713.00	0.1785
714.00	0.1785
715.00	0.1785
716.00	0.1783
717.00	0.1783
718.00	0.1782
719.00	0.1783
720.00	0.1786
721.00	0.1788
722.00	0.1789
723.00	0.1789
724.00	0.1786
725.00	0.1785
726.00	0.1781
727.00	0.1781
728.00	0.1784
729.00	0.1787
730.00	0.1789
731.00	0.1798
732.00	0.1802
733.00	0.1805
734.00	0.1807
735.00	0.1811
736.00	0.1810
737.00	0.1811
738.00	0.1814
739.00	0.1818
740.00	0.1821
741.00	0.1824
742.00	0.1827
743.00	0.1830
744.00	0.1832
745.00	0.1835
746.00	0.1838
747.00	0.1836
748.00	0.1842
749.00	0.1844
750.00	0.1847
751.00	0.1851
752.00	0.1858
753.00	0.1858
754.00	0.1862
755.00	0.1865
756.00	0.1867
757.00	0.1868
758.00	0.1871
759.00	0.1871
760.00	0.1872
761.00	0.1875
762.00	0.1879
763.00	0.1885
764.00	0.1888
765.00	0.1891
766.00	0.1892
767.00	0.1891
768.00	0.1889
769.00	0.1888
770.00	0.1886
771.00	0.1883
772.00	0.1882
773.00	0.1880
774.00	0.1881
775.00	0.1880
776.00	0.1880
777.00	0.1882
778.00	0.1880
779.00	0.1873
780.00	0.1867
781.00	0.1861
782.00	0.1851
783.00	0.1844
784.00	0.1843
785.00	0.1844
786.00	0.1841
787.00	0.1840
788.00	0.1839
789.00	0.1837
790.00	0.1833
791.00	0.1825
792.00	0.1819
793.00	0.1812
794.00	0.1803
795.00	0.1794
796.00	0.1787
797.00	0.1775
798.00	0.1765
799.00	0.1756
800.00	0.1748
801.00	0.1740
802.00	0.1737
803.00	0.1728
804.00	0.1721
805.00	0.1715
806.00	0.1708
807.00	0.1700
808.00	0.1696
809.00	0.1689
810.00	0.1684
811.00	0.1680
812.00	0.1675
813.00	0.1670
814.00	0.1667
815.00	0.1665
816.00	0.1660
817.00	0.1659
818.00	0.1657
819.00	0.1655
820.00	0.1651
821.00	0.1651
822.00	0.1651
823.00	0.1649
824.00	0.1648
825.00	0.1650
826.00	0.1648
827.00	0.1648
828.00	0.1649
829.00	0.1649
830.00	0.1648
831.00	0.1651
832.00	0.1650
833.00	0.1652
834.00	0.1653
835.00	0.1655
836.00	0.1656
837.00	0.1656
838.00	0.1657
839.00	0.1658
840.00	0.1659
841.00	0.1663
842.00	0.1667
843.00	0.1670
844.00	0.1674
845.00	0.1677
846.00	0.1681
847.00	0.1685
848.00	0.1688
849.00	0.1690
850.00	0.1694
851.00	0.1696
852.00	0.1698
853.00	0.1701
854.00	0.1706
855.00	0.1705
856.00	0.1706
857.00	0.1708
858.00	0.1707
859.00	0.1703
860.00	0.1704
861.00	0.1703
862.00	0.1702
863.00	0.1701
864.00	0.1701
865.00	0.1700
866.00	0.1700
867.00	0.1700
868.00	0.1700
869.00	0.1696
870.00	0.1695
871.00	0.1694
872.00	0.1692
873.00	0.1689
874.00	0.1690
875.00	0.1689
876.00	0.1688
877.00	0.1684
878.00	0.1679
879.00	0.1673
880.00	0.1667
881.00	0.1660
882.00	0.1654
883.00	0.1646
884.00	0.1639
885.00	0.1631
886.00	0.1624
887.00	0.1616
888.00	0.1608
889.00	0.1599
890.00	0.1589
891.00	0.1580
892.00	0.1570
893.00	0.1562
894.00	0.1553
895.00	0.1545
896.00	0.1535
897.00	0.1525
898.00	0.1516
899.00	0.1508
900.00	0.1499
901.00	0.1490
902.00	0.1482
903.00	0.1473
904.00	0.1465
905.00	0.1456
906.00	0.1448
907.00	0.1441
908.00	0.1433
909.00	0.1424
910.00	0.1415
911.00	0.1407
912.00	0.1398
913.00	0.1391
914.00	0.1383
915.00	0.1376
916.00	0.1368
917.00	0.1361
918.00	0.1354
919.00	0.1348
920.00	0.1342
921.00	0.1334
922.00	0.1326
923.00	0.1317
924.00	0.1308
925.00	0.1301
926.00	0.1294
927.00	0.1288
928.00	0.1282
929.00	0.1274
930.00	0.1267
931.00	0.1259
932.00	0.1252
933.00	0.1244
934.00	0.1238
935.00	0.1231
936.00	0.1224
937.00	0.1219
938.00	0.1215
939.00	0.1207
940.00	0.1200
941.00	0.1193
942.00	0.1185
943.00	0.1177
944.00	0.1170
945.00	0.1164
946.00	0.1158
947.00	0.1151
948.00	0.1147
949.00	0.1141
950.00	0.1133
951.00	0.1128
952.00	0.1122
953.00	0.1114
954.00	0.1106
955.00	0.1101
956.00	0.1094
957.00	0.1088
958.00	0.1082
959.00	0.1077
960.00	0.1071
961.00	0.1065
962.00	0.1059
963.00	0.1053
964.00	0.1047
965.00	0.1039
966.00	0.1033
967.00	0.1028
968.00	0.1020
969.00	0.1014
970.00	0.1010
971.00	0.1005
972.00	0.0998
973.00	0.0993
974.00	0.0987
975.00	0.0980
976.00	0.0973
977.00	0.0968
978.00	0.0962
979.00	0.0959
980.00	0.0951
981.00	0.0946
982.00	0.0941
983.00	0.0935
984.00	0.0928
985.00	0.0924
986.00	0.0920
987.00	0.0912
988.00	0.0909
989.00	0.0902
990.00	0.0897
991.00	0.0890
992.00	0.0885
993.00	0.0880
994.00	0.0875
995.00	0.0872
996.00	0.0866
997.00	0.0861
998.00	0.0854
999.00	0.0848
1000.00	0.0841
1001.00	0.0834
1002.00	0.0830
1003.00	0.0826
1004.00	0.0820
1005.00	0.0816
1006.00	0.0813
1007.00	0.0807
1008.00	0.0802
1009.00	0.0796
1010.00	0.0792
1011.00	0.0786
1012.00	0.0782
1013.00	0.0778
1014.00	0.0772
1015.00	0.0766
1016.00	0.0760
1017.00	0.0758
1018.00	0.0753
1019.00	0.0750
1020.00	0.0746
1021.00	0.0742
1022.00	0.0736
1023.00	0.0731
1024.00	0.0727
1025.00	0.0722
1026.00	0.0717
1027.00	0.0713
1028.00	0.0709
1029.00	0.0702
1030.00	0.0698
1031.00	0.0693
1032.00	0.0688
1033.00	0.0683
1034.00	0.0682
1035.00	0.0679
1036.00	0.0674
1037.00	0.0670
1038.00	0.0665
1039.00	0.0660
1040.00	0.0656
1041.00	0.0654
1042.00	0.0651
1043.00	0.0647
1044.00	0.0641
1045.00	0.0635
1046.00	0.0631
1047.00	0.0628
1048.00	0.0623
1049.00	0.0623
1050.00	0.0622
1051.00	0.0617
1052.00	0.0614
1053.00	0.0612
1054.00	0.0608
1055.00	0.0606
1056.00	0.0603
1057.00	0.0599
1058.00	0.0602
1059.00	0.0599
1060.00	0.0596
1061.00	0.0594
1062.00	0.0591
1063.00	0.0582
1064.00	0.0579
1065.00	0.0576
1066.00	0.0572
1067.00	0.0572
1068.00	0.0571
1069.00	0.0568
1070.00	0.0563
1071.00	0.0561
1072.00	0.0555
1073.00	0.0551
1074.00	0.0549
1075.00	0.0546
1076.00	0.0543
1077.00	0.0540
1078.00	0.0538
1079.00	0.0535
1080.00	0.0534
1081.00	0.0532
1082.00	0.0530
1083.00	0.0528
1084.00	0.0525
1085.00	0.0524
1086.00	0.0522
1087.00	0.0520
1088.00	0.0516
1089.00	0.0516
1090.00	0.0513
1091.00	0.0514
1092.00	0.0513
1093.00	0.0511
1094.00	0.0508
1095.00	0.0506
1096.00	0.0503
1097.00	0.0501
1098.00	0.0502
1099.00	0.0502
1100.00	0.0502
1101.00	0.0500
1102.00	0.0499
1103.00	0.0497
1104.00	0.0494
1105.00	0.0497
1106.00	0.0491
1107.00	0.0488
1108.00	0.0487
1109.00	0.0484
1110.00	0.0477
1111.00	0.0481
1112.00	0.0479
1113.00	0.0478
1114.00	0.0477
1115.00	0.0475
1116.00	0.0474
1117.00	0.0472
1118.00	0.0470
1119.00	0.0469
1120.00	0.0468
1121.00	0.0464
1122.00	0.0465
1123.00	0.0464
1124.00	0.0463
1125.00	0.0461
1126.00	0.0462
1127.00	0.0460
1128.00	0.0458
1129.00	0.0456
1130.00	0.0454
1131.00	0.0454
1132.00	0.0453
1133.00	0.0454
1134.00	0.0452
1135.00	0.0452
1136.00	0.0452
1137.00	0.0451
1138.00	0.0451
1139.00	0.0450
1140.00	0.0450
1141.00	0.0449
1142.00	0.0448
1143.00	0.0445
1144.00	0.0449
1145.00	0.0446
1146.00	0.0446
1147.00	0.0447
1148.00	0.0447
1149.00	0.0445
1150.00	0.0444
1151.00	0.0443
1152.00	0.0441
1153.00	0.0440
1154.00	0.0438
1155.00	0.0439
1156.00	0.0440
1157.00	0.0440
1158.00	0.0441
1159.00	0.0442
1160.00	0.0440
1161.00	0.0439
1162.00	0.0438
1163.00	0.0438
1164.00	0.0438
1165.00	0.0436
1166.00	0.0436
1167.00	0.0432
1168.00	0.0428
1169.00	0.0429
1170.00	0.0432
1171.00	0.0433
1172.00	0.0435
1173.00	0.0440
1174.00	0.0437
1175.00	0.0437
1176.00	0.0436
1177.00	0.0437
1178.00	0.0435
1179.00	0.0438
1180.00	0.0438
1181.00	0.0439
1182.00	0.0438
1183.00	0.0437
1184.00	0.0436
1185.00	0.0434
1186.00	0.0434
1187.00	0.0436
1188.00	0.0438
1189.00	0.0437
1190.00	0.0438
1191.00	0.0439
1192.00	0.0438
1193.00	0.0438
1194.00	0.0441
1195.00	0.0443
1196.00	0.0441
1197.00	0.0441
1198.00	0.0440
1199.00	0.0437
1200.00	0.0435
1201.00	0.0436
1202.00	0.0437
1203.00	0.0441
1204.00	0.0443
1205.00	0.0443
1206.00	0.0444
1207.00	0.0443
1208.00	0.0442
1209.00	0.0440
1210.00	0.0441
1211.00	0.0441
1212.00	0.0443
1213.00	0.0442
1214.00	0.0438
1215.00	0.0437
1216.00	0.0438
1217.00	0.0439
1218.00	0.0439
1219.00	0.0444
1220.00	0.0445
1221.00	0.0447
1222.00	0.0446
1223.00	0.0447
1224.00	0.0449
1225.00	0.0451
1226.00	0.0451
1227.00	0.0451
1228.00	0.0451
1229.00	0.0448
1230.00	0.0448
1231.00	0.0447
1232.00	0.0448
1233.00	0.0449
1234.00	0.0451
1235.00	0.0451
1236.00	0.0454
1237.00	0.0455
1238.00	0.0455
1239.00	0.0456
1240.00	0.0455
1241.00	0.0452
1242.00	0.0453
1243.00	0.0447
1244.00	0.0449
1245.00	0.0455
1246.00	0.0457
1247.00	0.0457
1248.00	0.0465
1249.00	0.0462
1250.00	0.0459
1251.00	0.0460
1252.00	0.0460
1253.00	0.0459
1254.00	0.0460
1255.00	0.0460
1256.00	0.0459
1257.00	0.0460
1258.00	0.0463
1259.00	0.0464
1260.00	0.0463
1261.00	0.0465
1262.00	0.0465
1263.00	0.0464
1264.00	0.0464
1265.00	0.0467
1266.00	0.0468
1267.00	0.0468
1268.00	0.0469
1269.00	0.0471
1270.00	0.0473
1271.00	0.0473
1272.00	0.0475
1273.00	0.0474
1274.00	0.0475
1275.00	0.0475
1276.00	0.0477
1277.00	0.0477
1278.00	0.0478
1279.00	0.0479
1280.00	0.0479
1281.00	0.0479
1282.00	0.0480
1283.00	0.0482
1284.00	0.0483
1285.00	0.0485
1286.00	0.0483
1287.00	0.0484
1288.00	0.0484
1289.00	0.0486
1290.00	0.0481
1291.00	0.0481
1292.00	0.0483
1293.00	0.0484
1294.00	0.0482
1295.00	0.0490
1296.00	0.0493
1297.00	0.0492
1298.00	0.0494
1299.00	0.0498
1300.00	0.0498
1301.00	0.0496
1302.00	0.0503
1303.00	0.0506
1304.00	0.0506
1305.00	0.0506
1306.00	0.0509
1307.00	0.0505
1308.00	0.0503
1309.00	0.0504
1310.00	0.0505
1311.00	0.0506
1312.00	0.0506
1313.00	0.0507
1314.00	0.0508
1315.00	0.0509
1316.00	0.0511
1317.00	0.0512
1318.00	0.0513
1319.00	0.0514
1320.00	0.0518
1321.00	0.0518
1322.00	0.0519
1323.00	0.0521
1324.00	0.0521
1325.00	0.0520
1326.00	0.0519
1327.00	0.0520
1328.00	0.0520
1329.00	0.0520
1330.00	0.0521
1331.00	0.0522
1332.00	0.0524
1333.00	0.0525
1334.00	0.0528
1335.00	0.0527
1336.00	0.0531
1337.00	0.0533
1338.00	0.0533
1339.00	0.0533
1340.00	0.0535
1341.00	0.0536
1342.00	0.0536
1343.00	0.0540
1344.00	0.0543
1345.00	0.0544
1346.00	0.0544
1347.00	0.0545
1348.00	0.0545
1349.00	0.0549
1350.00	0.0551
1351.00	0.0562
1352.00	0.0565
1353.00	0.0566
1354.00	0.0566
1355.00	0.0566
1356.00	0.0560
1357.00	0.0560
1358.00	0.0562
1359.00	0.0564
1360.00	0.0567
1361.00	0.0567
1362.00	0.0569
1363.00	0.0569
1364.00	0.0570
1365.00	0.0573
1366.00	0.0572
1367.00	0.0576
1368.00	0.0579
1369.00	0.0581
1370.00	0.0580
1371.00	0.0584
1372.00	0.0585
1373.00	0.0585
1374.00	0.0587
1375.00	0.0589
1376.00	0.0591
1377.00	0.0592
1378.00	0.0596
1379.00	0.0597
1380.00	0.0601
1381.00	0.0601
1382.00	0.0605
1383.00	0.0607
1384.00	0.0607
1385.00	0.0608
1386.00	0.0609
1387.00	0.0608
1388.00	0.0609
1389.00	0.0613
1390.00	0.0613
1391.00	0.0617
1392.00	0.0621
1393.00	0.0624
1394.00	0.0623
1395.00	0.0625
1396.00	0.0627
1397.00	0.0627
1398.00	0.0630
1399.00	0.0633
1400.00	0.0636
1401.00	0.0636
1402.00	0.0638
1403.00	0.0640
1404.00	0.0643
1405.00	0.0645
1406.00	0.0647
1407.00	0.0651
1408.00	0.0653
1409.00	0.0654
1410.00	0.0655
1411.00	0.0656
1412.00	0.0655
1413.00	0.0659
1414.00	0.0660
1415.00	0.0664
1416.00	0.0669
1417.00	0.0670
1418.00	0.0671
1419.00	0.0674
1420.00	0.0673
1421.00	0.0674
1422.00	0.0678
1423.00	0.0679
1424.00	0.0681
1425.00	0.0683
1426.00	0.0686
1427.00	0.0689
1428.00	0.0690
1429.00	0.0691
1430.00	0.0696
1431.00	0.0696
1432.00	0.0697
1433.00	0.0700
1434.00	0.0702
1435.00	0.0703
1436.00	0.0705
1437.00	0.0709
1438.00	0.0712
1439.00	0.0714
1440.00	0.0714
1441.00	0.0716
1442.00	0.0715
1443.00	0.0710
1444.00	0.0712
1445.00	0.0715
1446.00	0.0716
1447.00	0.0719
1448.00	0.0727
1449.00	0.0729
1450.00	0.0732
1451.00	0.0734
1452.00	0.0736
1453.00	0.0737
1454.00	0.0737
1455.00	0.0740
1456.00	0.0742
1457.00	0.0746
1458.00	0.0750
1459.00	0.0751
1460.00	0.0752
1461.00	0.0755
1462.00	0.0757
1463.00	0.0759
1464.00	0.0761
1465.00	0.0764
1466.00	0.0767
1467.00	0.0768
1468.00	0.0770
1469.00	0.0772
1470.00	0.0776
1471.00	0.0781
1472.00	0.0782
1473.00	0.0784
1474.00	0.0787
1475.00	0.0787
1476.00	0.0783
1477.00	0.0786
1478.00	0.0786
1479.00	0.0789
1480.00	0.0791
1481.00	0.0795
1482.00	0.0797
1483.00	0.0801
1484.00	0.0801
1485.00	0.0805
1486.00	0.0808
1487.00	0.0809
1488.00	0.0811
1489.00	0.0815
1490.00	0.0817
1491.00	0.0818
1492.00	0.0821
1493.00	0.0821
1494.00	0.0823
1495.00	0.0826
1496.00	0.0830
1497.00	0.0834
1498.00	0.0835
1499.00	0.0837
1500.00	0.0838
1501.00	0.0839
1502.00	0.0842
1503.00	0.0846
1504.00	0.0847
1505.00	0.0851
1506.00	0.0854
1507.00	0.0856
1508.00	0.0859
1509.00	0.0861
1510.00	0.0862
1511.00	0.0864
1512.00	0.0865
1513.00	0.0865
1514.00	0.0869
1515.00	0.0870
1516.00	0.0872
1517.00	0.0877
1518.00	0.0880
1519.00	0.0881
1520.00	0.0880
1521.00	0.0884
1522.00	0.0884
1523.00	0.0887
1524.00	0.0890
1525.00	0.0896
1526.00	0.0898
1527.00	0.0900
1528.00	0.0903
1529.00	0.0905
1530.00	0.0907
1531.00	0.0910
1532.00	0.0913
1533.00	0.0915
1534.00	0.0918
1535.00	0.0921
1536.00	0.0921
1537.00	0.0923
1538.00	0.0924
1539.00	0.0926
1540.00	0.0928
1541.00	0.0931
1542.00	0.0933
1543.00	0.0939
1544.00	0.0941
1545.00	0.0944
1546.00	0.0948
1547.00	0.0949
1548.00	0.0950
1549.00	0.0952
1550.00	0.0954
1551.00	0.0956
1552.00	0.0960
1553.00	0.0962
1554.00	0.0966
1555.00	0.0967
1556.00	0.0969
1557.00	0.0972
1558.00	0.0974
1559.00	0.0975
1560.00	0.0978
1561.00	0.0982
1562.00	0.0982
1563.00	0.0985
1564.00	0.0988
1565.00	0.0991
1566.00	0.0991
1567.00	0.0996
1568.00	0.0998
1569.00	0.1000
1570.00	0.1002
1571.00	0.1006
1572.00	0.1007
1573.00	0.1008
1574.00	0.1012
1575.00	0.1012
1576.00	0.1015
1577.00	0.1019
1578.00	0.1023
1579.00	0.1023
1580.00	0.1027
1581.00	0.1030
1582.00	0.1031
1583.00	0.1034
1584.00	0.1037
1585.00	0.1041
1586.00	0.1042
1587.00	0.1047
1588.00	0.1047
1589.00	0.1050
