"20-30mM-1_CB0mM - RawData"
"Wavelength nm."	"Abs."
300.00	0.0617
301.00	0.0617
302.00	0.0616
303.00	0.0614
304.00	0.0610
305.00	0.0606
306.00	0.0604
307.00	0.0602
308.00	0.0605
309.00	0.0607
310.00	0.0603
311.00	0.0595
312.00	0.0594
313.00	0.0588
314.00	0.0586
315.00	0.0589
316.00	0.0593
317.00	0.0590
318.00	0.0589
319.00	0.0586
320.00	0.0583
321.00	0.0583
322.00	0.0582
323.00	0.0582
324.00	0.0583
325.00	0.0584
326.00	0.0585
327.00	0.0588
328.00	0.0590
329.00	0.0592
330.00	0.0591
331.00	0.0587
332.00	0.0579
333.00	0.0581
334.00	0.0583
335.00	0.0587
336.00	0.0598
337.00	0.0616
338.00	0.0628
339.00	0.0632
340.00	0.0639
341.00	0.0643
342.00	0.0643
343.00	0.0641
344.00	0.0646
345.00	0.0651
346.00	0.0656
347.00	0.0661
348.00	0.0663
349.00	0.0669
350.00	0.0673
351.00	0.0680
352.00	0.0687
353.00	0.0696
354.00	0.0702
355.00	0.0707
356.00	0.0711
357.00	0.0714
358.00	0.0717
359.00	0.0721
360.00	0.0723
361.00	0.0725
362.00	0.0723
363.00	0.0733
364.00	0.0743
365.00	0.0759
366.00	0.0777
367.00	0.0804
368.00	0.0807
369.00	0.0811
370.00	0.0812
371.00	0.0811
372.00	0.0804
373.00	0.0811
374.00	0.0818
375.00	0.0825
376.00	0.0834
377.00	0.0842
378.00	0.0851
379.00	0.0857
380.00	0.0863
381.00	0.0867
382.00	0.0869
383.00	0.0876
384.00	0.0885
385.00	0.0895
386.00	0.0908
387.00	0.0923
388.00	0.0933
389.00	0.0943
390.00	0.0952
391.00	0.0962
392.00	0.0972
393.00	0.0983
394.00	0.0995
395.00	0.1007
396.00	0.1018
397.00	0.1027
398.00	0.1036
399.00	0.1046
400.00	0.1057
401.00	0.1070
402.00	0.1085
403.00	0.1098
404.00	0.1109
405.00	0.1121
406.00	0.1131
407.00	0.1142
408.00	0.1153
409.00	0.1165
410.00	0.1177
411.00	0.1190
412.00	0.1203
413.00	0.1216
414.00	0.1230
415.00	0.1244
416.00	0.1259
417.00	0.1274
418.00	0.1289
419.00	0.1304
420.00	0.1320
421.00	0.1338
422.00	0.1355
423.00	0.1372
424.00	0.1387
425.00	0.1400
426.00	0.1415
427.00	0.1430
428.00	0.1447
429.00	0.1465
430.00	0.1484
431.00	0.1504
432.00	0.1522
433.00	0.1540
434.00	0.1559
435.00	0.1578
436.00	0.1596
437.00	0.1615
438.00	0.1637
439.00	0.1659
440.00	0.1682
441.00	0.1704
442.00	0.1725
443.00	0.1745
444.00	0.1765
445.00	0.1786
446.00	0.1809
447.00	0.1834
448.00	0.1859
449.00	0.1885
450.00	0.1912
451.00	0.1940
452.00	0.1964
453.00	0.1990
454.00	0.2016
455.00	0.2043
456.00	0.2069
457.00	0.2097
458.00	0.2123
459.00	0.2151
460.00	0.2179
461.00	0.2206
462.00	0.2235
463.00	0.2261
464.00	0.2288
465.00	0.2314
466.00	0.2340
467.00	0.2366
468.00	0.2394
469.00	0.2418
470.00	0.2444
471.00	0.2469
472.00	0.2494
473.00	0.2519
474.00	0.2547
475.00	0.2574
476.00	0.2601
477.00	0.2630
478.00	0.2659
479.00	0.2688
480.00	0.2717
481.00	0.2744
482.00	0.2769
483.00	0.2794
484.00	0.2818
485.00	0.2840
486.00	0.2863
487.00	0.2887
488.00	0.2909
489.00	0.2930
490.00	0.2953
491.00	0.2975
492.00	0.2998
493.00	0.3020
494.00	0.3041
495.00	0.3062
496.00	0.3081
497.00	0.3100
498.00	0.3120
499.00	0.3139
500.00	0.3159
501.00	0.3179
502.00	0.3198
503.00	0.3217
504.00	0.3236
505.00	0.3253
506.00	0.3269
507.00	0.3284
508.00	0.3299
509.00	0.3314
510.00	0.3327
511.00	0.3342
512.00	0.3355
513.00	0.3367
514.00	0.3378
515.00	0.3386
516.00	0.3393
517.00	0.3400
518.00	0.3403
519.00	0.3405
520.00	0.3409
521.00	0.3413
522.00	0.3417
523.00	0.3421
524.00	0.3422
525.00	0.3419
526.00	0.3416
527.00	0.3411
528.00	0.3407
529.00	0.3405
530.00	0.3405
531.00	0.3409
532.00	0.3405
533.00	0.3401
534.00	0.3395
535.00	0.3390
536.00	0.3379
537.00	0.3376
538.00	0.3372
539.00	0.3371
540.00	0.3366
541.00	0.3363
542.00	0.3361
543.00	0.3358
544.00	0.3356
545.00	0.3353
546.00	0.3349
547.00	0.3345
548.00	0.3341
549.00	0.3334
550.00	0.3328
551.00	0.3321
552.00	0.3313
553.00	0.3304
554.00	0.3292
555.00	0.3278
556.00	0.3265
557.00	0.3246
558.00	0.3226
559.00	0.3208
560.00	0.3186
561.00	0.3160
562.00	0.3139
563.00	0.3116
564.00	0.3089
565.00	0.3061
566.00	0.3033
567.00	0.3000
568.00	0.2968
569.00	0.2935
570.00	0.2906
571.00	0.2876
572.00	0.2846
573.00	0.2813
574.00	0.2782
575.00	0.2748
576.00	0.2715
577.00	0.2683
578.00	0.2653
579.00	0.2624
580.00	0.2598
581.00	0.2572
582.00	0.2547
583.00	0.2524
584.00	0.2500
585.00	0.2477
586.00	0.2456
587.00	0.2437
588.00	0.2418
589.00	0.2400
590.00	0.2384
591.00	0.2370
592.00	0.2354
593.00	0.2340
594.00	0.2326
595.00	0.2312
596.00	0.2296
597.00	0.2280
598.00	0.2267
599.00	0.2253
600.00	0.2238
601.00	0.2224
602.00	0.2209
603.00	0.2191
604.00	0.2172
605.00	0.2153
606.00	0.2128
607.00	0.2101
608.00	0.2077
609.00	0.2055
610.00	0.2029
611.00	0.2000
612.00	0.1970
613.00	0.1932
614.00	0.1889
615.00	0.1848
616.00	0.1812
617.00	0.1775
618.00	0.1738
619.00	0.1700
620.00	0.1659
621.00	0.1617
622.00	0.1576
623.00	0.1539
624.00	0.1499
625.00	0.1460
626.00	0.1422
627.00	0.1384
628.00	0.1344
629.00	0.1306
630.00	0.1269
631.00	0.1233
632.00	0.1194
633.00	0.1156
634.00	0.1122
635.00	0.1091
636.00	0.1061
637.00	0.1033
638.00	0.1007
639.00	0.0981
640.00	0.0954
641.00	0.0926
642.00	0.0903
643.00	0.0881
644.00	0.0859
645.00	0.0839
646.00	0.0821
647.00	0.0803
648.00	0.0787
649.00	0.0775
650.00	0.0763
651.00	0.0749
652.00	0.0735
653.00	0.0721
654.00	0.0705
655.00	0.0689
656.00	0.0674
657.00	0.0665
658.00	0.0654
659.00	0.0646
660.00	0.0639
661.00	0.0634
662.00	0.0625
663.00	0.0619
664.00	0.0608
665.00	0.0600
666.00	0.0597
667.00	0.0591
668.00	0.0585
669.00	0.0580
670.00	0.0582
671.00	0.0577
672.00	0.0576
673.00	0.0573
674.00	0.0570
675.00	0.0558
676.00	0.0553
677.00	0.0546
678.00	0.0539
679.00	0.0534
680.00	0.0532
681.00	0.0528
682.00	0.0525
683.00	0.0524
684.00	0.0522
685.00	0.0518
686.00	0.0513
687.00	0.0509
688.00	0.0503
689.00	0.0500
690.00	0.0494
691.00	0.0496
692.00	0.0495
693.00	0.0494
694.00	0.0491
695.00	0.0493
696.00	0.0487
697.00	0.0482
698.00	0.0477
699.00	0.0476
700.00	0.0473
701.00	0.0471
702.00	0.0471
703.00	0.0475
704.00	0.0474
705.00	0.0468
706.00	0.0468
707.00	0.0467
708.00	0.0467
709.00	0.0463
710.00	0.0466
711.00	0.0468
712.00	0.0468
713.00	0.0460
714.00	0.0461
715.00	0.0466
716.00	0.0471
717.00	0.0466
718.00	0.0462
719.00	0.0462
720.00	0.0455
721.00	0.0444
722.00	0.0445
723.00	0.0446
724.00	0.0438
725.00	0.0435
726.00	0.0423
727.00	0.0420
728.00	0.0416
729.00	0.0420
730.00	0.0418
731.00	0.0424
732.00	0.0421
733.00	0.0422
734.00	0.0421
735.00	0.0419
736.00	0.0416
737.00	0.0415
738.00	0.0414
739.00	0.0414
740.00	0.0413
741.00	0.0412
742.00	0.0410
743.00	0.0407
744.00	0.0404
745.00	0.0403
746.00	0.0402
747.00	0.0400
748.00	0.0405
749.00	0.0402
750.00	0.0402
751.00	0.0403
752.00	0.0406
753.00	0.0398
754.00	0.0400
755.00	0.0401
756.00	0.0400
757.00	0.0397
758.00	0.0402
759.00	0.0401
760.00	0.0401
761.00	0.0397
762.00	0.0397
763.00	0.0395
764.00	0.0394
765.00	0.0393
766.00	0.0394
767.00	0.0394
768.00	0.0394
769.00	0.0397
770.00	0.0393
771.00	0.0389
772.00	0.0388
773.00	0.0386
774.00	0.0383
775.00	0.0385
776.00	0.0391
777.00	0.0390
778.00	0.0388
779.00	0.0385
780.00	0.0384
781.00	0.0377
782.00	0.0373
783.00	0.0371
784.00	0.0370
785.00	0.0372
786.00	0.0374
787.00	0.0372
788.00	0.0368
789.00	0.0363
790.00	0.0359
791.00	0.0352
792.00	0.0346
793.00	0.0341
794.00	0.0337
795.00	0.0329
796.00	0.0321
797.00	0.0310
798.00	0.0299
799.00	0.0287
800.00	0.0279
801.00	0.0270
802.00	0.0266
803.00	0.0261
804.00	0.0252
805.00	0.0242
806.00	0.0235
807.00	0.0228
808.00	0.0224
809.00	0.0221
810.00	0.0217
811.00	0.0214
812.00	0.0209
813.00	0.0204
814.00	0.0200
815.00	0.0198
816.00	0.0196
817.00	0.0194
818.00	0.0192
819.00	0.0190
820.00	0.0188
821.00	0.0187
822.00	0.0188
823.00	0.0188
824.00	0.0186
825.00	0.0193
826.00	0.0192
827.00	0.0192
828.00	0.0196
829.00	0.0198
830.00	0.0195
831.00	0.0197
832.00	0.0197
833.00	0.0197
834.00	0.0195
835.00	0.0193
836.00	0.0191
837.00	0.0190
838.00	0.0189
839.00	0.0189
840.00	0.0189
841.00	0.0192
842.00	0.0191
843.00	0.0191
844.00	0.0192
845.00	0.0191
846.00	0.0189
847.00	0.0192
848.00	0.0194
849.00	0.0193
850.00	0.0193
851.00	0.0194
852.00	0.0190
853.00	0.0187
854.00	0.0187
855.00	0.0188
856.00	0.0187
857.00	0.0186
858.00	0.0186
859.00	0.0185
860.00	0.0184
861.00	0.0182
862.00	0.0182
863.00	0.0181
864.00	0.0181
865.00	0.0180
866.00	0.0180
867.00	0.0179
868.00	0.0177
869.00	0.0176
870.00	0.0176
871.00	0.0175
872.00	0.0174
873.00	0.0174
874.00	0.0174
875.00	0.0174
876.00	0.0175
877.00	0.0175
878.00	0.0173
879.00	0.0170
880.00	0.0169
881.00	0.0167
882.00	0.0167
883.00	0.0168
884.00	0.0169
885.00	0.0171
886.00	0.0170
887.00	0.0170
888.00	0.0169
889.00	0.0168
890.00	0.0166
891.00	0.0168
892.00	0.0165
893.00	0.0164
894.00	0.0164
895.00	0.0165
896.00	0.0162
897.00	0.0163
898.00	0.0163
899.00	0.0163
900.00	0.0161
901.00	0.0158
902.00	0.0159
903.00	0.0162
904.00	0.0161
905.00	0.0163
906.00	0.0165
907.00	0.0165
908.00	0.0161
909.00	0.0161
910.00	0.0159
911.00	0.0159
912.00	0.0158
913.00	0.0157
914.00	0.0154
915.00	0.0155
916.00	0.0155
917.00	0.0156
918.00	0.0157
919.00	0.0160
920.00	0.0160
921.00	0.0159
922.00	0.0157
923.00	0.0156
924.00	0.0153
925.00	0.0153
926.00	0.0153
927.00	0.0154
928.00	0.0154
929.00	0.0155
930.00	0.0152
931.00	0.0150
932.00	0.0149
933.00	0.0148
934.00	0.0148
935.00	0.0149
936.00	0.0149
937.00	0.0151
938.00	0.0152
939.00	0.0152
940.00	0.0151
941.00	0.0151
942.00	0.0151
943.00	0.0150
944.00	0.0150
945.00	0.0150
946.00	0.0149
947.00	0.0149
948.00	0.0149
949.00	0.0148
950.00	0.0147
951.00	0.0149
952.00	0.0149
953.00	0.0147
954.00	0.0147
955.00	0.0148
956.00	0.0147
957.00	0.0147
958.00	0.0146
959.00	0.0144
960.00	0.0145
961.00	0.0144
962.00	0.0144
963.00	0.0145
964.00	0.0146
965.00	0.0144
966.00	0.0144
967.00	0.0143
968.00	0.0143
969.00	0.0144
970.00	0.0144
971.00	0.0145
972.00	0.0145
973.00	0.0144
974.00	0.0141
975.00	0.0140
976.00	0.0139
977.00	0.0139
978.00	0.0139
979.00	0.0141
980.00	0.0142
981.00	0.0141
982.00	0.0143
983.00	0.0143
984.00	0.0143
985.00	0.0143
986.00	0.0146
987.00	0.0144
988.00	0.0145
989.00	0.0143
990.00	0.0143
991.00	0.0142
992.00	0.0142
993.00	0.0141
994.00	0.0142
995.00	0.0142
996.00	0.0141
997.00	0.0142
998.00	0.0141
999.00	0.0141
1000.00	0.0139
1001.00	0.0137
1002.00	0.0137
1003.00	0.0136
1004.00	0.0137
1005.00	0.0137
1006.00	0.0139
1007.00	0.0138
1008.00	0.0135
1009.00	0.0133
1010.00	0.0134
1011.00	0.0132
1012.00	0.0129
1013.00	0.0134
1014.00	0.0132
1015.00	0.0131
1016.00	0.0131
1017.00	0.0133
1018.00	0.0134
1019.00	0.0135
1020.00	0.0135
1021.00	0.0136
1022.00	0.0135
1023.00	0.0131
1024.00	0.0132
1025.00	0.0129
1026.00	0.0130
1027.00	0.0129
1028.00	0.0132
1029.00	0.0131
1030.00	0.0134
1031.00	0.0134
1032.00	0.0134
1033.00	0.0132
1034.00	0.0133
1035.00	0.0131
1036.00	0.0128
1037.00	0.0128
1038.00	0.0128
1039.00	0.0128
1040.00	0.0129
1041.00	0.0131
1042.00	0.0132
1043.00	0.0133
1044.00	0.0129
1045.00	0.0125
1046.00	0.0123
1047.00	0.0123
1048.00	0.0120
1049.00	0.0122
1050.00	0.0125
1051.00	0.0125
1052.00	0.0124
1053.00	0.0125
1054.00	0.0124
1055.00	0.0126
1056.00	0.0125
1057.00	0.0127
1058.00	0.0129
1059.00	0.0128
1060.00	0.0128
1061.00	0.0129
1062.00	0.0127
1063.00	0.0124
1064.00	0.0126
1065.00	0.0127
1066.00	0.0124
1067.00	0.0125
1068.00	0.0130
1069.00	0.0124
1070.00	0.0117
1071.00	0.0119
1072.00	0.0117
1073.00	0.0112
1074.00	0.0118
1075.00	0.0122
1076.00	0.0123
1077.00	0.0122
1078.00	0.0122
1079.00	0.0120
1080.00	0.0120
1081.00	0.0120
1082.00	0.0119
1083.00	0.0120
1084.00	0.0120
1085.00	0.0121
1086.00	0.0119
1087.00	0.0120
1088.00	0.0119
1089.00	0.0120
1090.00	0.0119
1091.00	0.0120
1092.00	0.0120
1093.00	0.0118
1094.00	0.0117
1095.00	0.0117
1096.00	0.0118
1097.00	0.0118
1098.00	0.0121
1099.00	0.0123
1100.00	0.0124
1101.00	0.0121
1102.00	0.0120
1103.00	0.0120
1104.00	0.0117
1105.00	0.0117
1106.00	0.0118
1107.00	0.0118
1108.00	0.0118
1109.00	0.0118
1110.00	0.0116
1111.00	0.0115
1112.00	0.0115
1113.00	0.0115
1114.00	0.0115
1115.00	0.0114
1116.00	0.0112
1117.00	0.0111
1118.00	0.0111
1119.00	0.0109
1120.00	0.0111
1121.00	0.0112
1122.00	0.0113
1123.00	0.0112
1124.00	0.0113
1125.00	0.0113
1126.00	0.0113
1127.00	0.0112
1128.00	0.0111
1129.00	0.0111
1130.00	0.0110
1131.00	0.0110
1132.00	0.0111
1133.00	0.0112
1134.00	0.0113
1135.00	0.0113
1136.00	0.0113
1137.00	0.0113
1138.00	0.0114
1139.00	0.0113
1140.00	0.0112
1141.00	0.0111
1142.00	0.0109
1143.00	0.0108
1144.00	0.0109
1145.00	0.0108
1146.00	0.0107
1147.00	0.0110
1148.00	0.0111
1149.00	0.0108
1150.00	0.0110
1151.00	0.0114
1152.00	0.0113
1153.00	0.0112
1154.00	0.0112
1155.00	0.0110
1156.00	0.0109
1157.00	0.0110
1158.00	0.0110
1159.00	0.0111
1160.00	0.0111
1161.00	0.0113
1162.00	0.0111
1163.00	0.0111
1164.00	0.0110
1165.00	0.0109
1166.00	0.0107
1167.00	0.0107
1168.00	0.0109
1169.00	0.0110
1170.00	0.0113
1171.00	0.0114
1172.00	0.0114
1173.00	0.0114
1174.00	0.0113
1175.00	0.0113
1176.00	0.0110
1177.00	0.0112
1178.00	0.0112
1179.00	0.0112
1180.00	0.0110
1181.00	0.0113
1182.00	0.0111
1183.00	0.0111
1184.00	0.0111
1185.00	0.0110
1186.00	0.0109
1187.00	0.0110
1188.00	0.0111
1189.00	0.0109
1190.00	0.0108
1191.00	0.0108
1192.00	0.0107
1193.00	0.0103
1194.00	0.0107
1195.00	0.0111
1196.00	0.0111
1197.00	0.0112
1198.00	0.0113
1199.00	0.0111
1200.00	0.0109
1201.00	0.0108
1202.00	0.0108
1203.00	0.0114
1204.00	0.0116
1205.00	0.0119
1206.00	0.0120
1207.00	0.0117
1208.00	0.0110
1209.00	0.0108
1210.00	0.0106
1211.00	0.0104
1212.00	0.0108
1213.00	0.0111
1214.00	0.0110
1215.00	0.0110
1216.00	0.0111
1217.00	0.0112
1218.00	0.0112
1219.00	0.0111
1220.00	0.0111
1221.00	0.0114
1222.00	0.0112
1223.00	0.0108
1224.00	0.0110
1225.00	0.0110
1226.00	0.0107
1227.00	0.0108
1228.00	0.0112
1229.00	0.0110
1230.00	0.0111
1231.00	0.0110
1232.00	0.0110
1233.00	0.0109
1234.00	0.0108
1235.00	0.0109
1236.00	0.0109
1237.00	0.0106
1238.00	0.0108
1239.00	0.0108
1240.00	0.0107
1241.00	0.0107
1242.00	0.0106
1243.00	0.0106
1244.00	0.0107
1245.00	0.0107
1246.00	0.0108
1247.00	0.0108
1248.00	0.0108
1249.00	0.0106
1250.00	0.0106
1251.00	0.0106
1252.00	0.0107
1253.00	0.0105
1254.00	0.0100
1255.00	0.0100
1256.00	0.0099
1257.00	0.0099
1258.00	0.0101
1259.00	0.0105
1260.00	0.0106
1261.00	0.0105
1262.00	0.0105
1263.00	0.0106
1264.00	0.0106
1265.00	0.0106
1266.00	0.0107
1267.00	0.0105
1268.00	0.0102
1269.00	0.0102
1270.00	0.0103
1271.00	0.0102
1272.00	0.0102
1273.00	0.0102
1274.00	0.0104
1275.00	0.0104
1276.00	0.0103
1277.00	0.0103
1278.00	0.0106
1279.00	0.0104
1280.00	0.0103
1281.00	0.0105
1282.00	0.0105
1283.00	0.0105
1284.00	0.0104
1285.00	0.0102
1286.00	0.0100
1287.00	0.0099
1288.00	0.0097
1289.00	0.0097
1290.00	0.0098
1291.00	0.0099
1292.00	0.0098
1293.00	0.0099
1294.00	0.0099
1295.00	0.0097
1296.00	0.0098
1297.00	0.0096
1298.00	0.0097
1299.00	0.0097
1300.00	0.0097
1301.00	0.0097
1302.00	0.0098
1303.00	0.0097
1304.00	0.0099
1305.00	0.0099
1306.00	0.0099
1307.00	0.0098
1308.00	0.0095
1309.00	0.0095
1310.00	0.0096
1311.00	0.0092
1312.00	0.0092
1313.00	0.0095
1314.00	0.0095
1315.00	0.0092
1316.00	0.0091
1317.00	0.0091
1318.00	0.0089
1319.00	0.0087
1320.00	0.0086
1321.00	0.0087
1322.00	0.0087
1323.00	0.0088
1324.00	0.0090
1325.00	0.0090
1326.00	0.0091
1327.00	0.0093
1328.00	0.0092
1329.00	0.0088
1330.00	0.0090
1331.00	0.0091
1332.00	0.0087
1333.00	0.0087
1334.00	0.0090
1335.00	0.0089
1336.00	0.0089
1337.00	0.0090
1338.00	0.0088
1339.00	0.0088
1340.00	0.0090
1341.00	0.0091
1342.00	0.0088
1343.00	0.0088
1344.00	0.0083
1345.00	0.0081
1346.00	0.0077
1347.00	0.0081
1348.00	0.0083
1349.00	0.0086
1350.00	0.0084
1351.00	0.0085
1352.00	0.0086
1353.00	0.0087
1354.00	0.0089
1355.00	0.0090
1356.00	0.0087
1357.00	0.0087
1358.00	0.0088
1359.00	0.0086
1360.00	0.0091
1361.00	0.0094
1362.00	0.0094
1363.00	0.0093
1364.00	0.0093
1365.00	0.0094
1366.00	0.0094
1367.00	0.0092
1368.00	0.0090
1369.00	0.0087
1370.00	0.0084
1371.00	0.0086
1372.00	0.0084
1373.00	0.0088
1374.00	0.0092
1375.00	0.0090
1376.00	0.0099
1377.00	0.0098
1378.00	0.0098
1379.00	0.0093
1380.00	0.0095
1381.00	0.0082
1382.00	0.0082
1383.00	0.0081
1384.00	0.0085
1385.00	0.0085
1386.00	0.0085
1387.00	0.0087
1388.00	0.0087
1389.00	0.0086
1390.00	0.0086
1391.00	0.0086
1392.00	0.0086
1393.00	0.0084
1394.00	0.0082
1395.00	0.0083
1396.00	0.0088
1397.00	0.0089
1398.00	0.0091
1399.00	0.0091
1400.00	0.0094
1401.00	0.0093
1402.00	0.0092
1403.00	0.0090
1404.00	0.0091
1405.00	0.0086
1406.00	0.0081
1407.00	0.0082
1408.00	0.0084
1409.00	0.0087
1410.00	0.0087
1411.00	0.0089
1412.00	0.0088
1413.00	0.0089
1414.00	0.0087
1415.00	0.0087
1416.00	0.0086
1417.00	0.0086
1418.00	0.0084
1419.00	0.0087
1420.00	0.0087
1421.00	0.0089
1422.00	0.0091
1423.00	0.0092
1424.00	0.0091
1425.00	0.0092
1426.00	0.0094
1427.00	0.0095
1428.00	0.0093
1429.00	0.0090
1430.00	0.0090
1431.00	0.0088
1432.00	0.0089
1433.00	0.0091
1434.00	0.0093
1435.00	0.0095
1436.00	0.0095
1437.00	0.0090
1438.00	0.0089
1439.00	0.0089
1440.00	0.0087
1441.00	0.0084
1442.00	0.0086
1443.00	0.0086
1444.00	0.0086
1445.00	0.0085
1446.00	0.0086
1447.00	0.0084
1448.00	0.0087
1449.00	0.0088
1450.00	0.0089
1451.00	0.0089
1452.00	0.0089
1453.00	0.0086
1454.00	0.0084
1455.00	0.0082
1456.00	0.0083
1457.00	0.0086
1458.00	0.0090
1459.00	0.0090
1460.00	0.0090
1461.00	0.0089
1462.00	0.0089
1463.00	0.0088
1464.00	0.0087
1465.00	0.0086
1466.00	0.0086
1467.00	0.0083
1468.00	0.0080
1469.00	0.0080
1470.00	0.0084
1471.00	0.0088
1472.00	0.0088
1473.00	0.0090
1474.00	0.0092
1475.00	0.0091
1476.00	0.0085
1477.00	0.0085
1478.00	0.0080
1479.00	0.0078
1480.00	0.0077
1481.00	0.0080
1482.00	0.0079
1483.00	0.0087
1484.00	0.0087
1485.00	0.0086
1486.00	0.0082
1487.00	0.0083
1488.00	0.0080
1489.00	0.0079
1490.00	0.0078
1491.00	0.0079
1492.00	0.0080
1493.00	0.0077
1494.00	0.0078
1495.00	0.0080
1496.00	0.0081
1497.00	0.0082
1498.00	0.0081
1499.00	0.0080
1500.00	0.0081
1501.00	0.0081
1502.00	0.0079
1503.00	0.0080
1504.00	0.0079
1505.00	0.0080
1506.00	0.0083
1507.00	0.0085
1508.00	0.0087
1509.00	0.0088
1510.00	0.0085
1511.00	0.0084
1512.00	0.0084
1513.00	0.0082
1514.00	0.0089
1515.00	0.0090
1516.00	0.0087
1517.00	0.0086
1518.00	0.0088
1519.00	0.0082
1520.00	0.0080
1521.00	0.0082
1522.00	0.0082
1523.00	0.0082
1524.00	0.0082
1525.00	0.0084
1526.00	0.0083
1527.00	0.0083
1528.00	0.0080
1529.00	0.0074
1530.00	0.0073
1531.00	0.0073
1532.00	0.0073
1533.00	0.0072
1534.00	0.0076
1535.00	0.0077
1536.00	0.0077
1537.00	0.0078
1538.00	0.0079
1539.00	0.0079
1540.00	0.0078
1541.00	0.0078
1542.00	0.0077
1543.00	0.0078
1544.00	0.0078
1545.00	0.0080
1546.00	0.0080
1547.00	0.0080
1548.00	0.0081
1549.00	0.0083
1550.00	0.0082
1551.00	0.0081
1552.00	0.0081
1553.00	0.0080
1554.00	0.0081
1555.00	0.0075
1556.00	0.0073
1557.00	0.0072
1558.00	0.0071
1559.00	0.0070
1560.00	0.0075
1561.00	0.0079
1562.00	0.0080
1563.00	0.0082
1564.00	0.0082
1565.00	0.0082
1566.00	0.0077
1567.00	0.0074
1568.00	0.0072
1569.00	0.0072
1570.00	0.0072
1571.00	0.0077
1572.00	0.0079
1573.00	0.0080
1574.00	0.0081
1575.00	0.0081
1576.00	0.0080
1577.00	0.0080
1578.00	0.0083
1579.00	0.0082
1580.00	0.0081
1581.00	0.0079
1582.00	0.0079
1583.00	0.0079
1584.00	0.0080
1585.00	0.0081
1586.00	0.0082
1587.00	0.0083
1588.00	0.0084
1589.00	0.0085
