"RawData - P3h-Doped F4tcnq_CB-10mmol"
"Wavelength nm.","Abs."
300.00, 
301.00, 
302.00, 
303.00, 
304.00, 
305.00, 
306.00, 
307.00, 
308.00, 
309.00, 
310.00, 
311.00, 
312.00, 
313.00, 
314.00, 
315.00, 
316.00, 
317.00, 
318.00, 
319.00, 
320.00, 
321.00, 
322.00, 
323.00, 
324.00, 
325.00, 
326.00, 
327.00, 
328.00, 
329.00, 
330.00, 
331.00, 
332.00, 
333.00, 
334.00, 
335.00, 
336.00, 
337.00, 
338.00, 
339.00, 
340.00, 
341.00, 
342.00, 
343.00, 
344.00, 
345.00, 
346.00, 
347.00, 
348.00, 
349.00, 
350.00, 
351.00, 
352.00, 
353.00, 
354.00, 
355.00, 
356.00, 
357.00, 
358.00, 
359.00, 
360.00, 
361.00, 
362.00, 
363.00, 
364.00, 
365.00, 
366.00, 
367.00, 
368.00, 
369.00, 
370.00, 
371.00, 
372.00, 
373.00, 
374.00, 
375.00, 
376.00, 
377.00, 
378.00, 
379.00, 
380.00, 
381.00, 
382.00, 
383.00, 
384.00, 
385.00, 
386.00, 
387.00, 
388.00, 
389.00, 
390.00, 
391.00, 
392.00, 
393.00, 
394.00, 
395.00, 
396.00, 
397.00, 
398.00, 
399.00, 
400.00, 
401.00, 
402.00, 
403.00, 
404.00, 
405.00, 
406.00, 
407.00, 
408.00, 
409.00, 
410.00, 
411.00, 
412.00, 
413.00, 
414.00, 
415.00, 
416.00, 
417.00, 
418.00, 
419.00, 
420.00, 
421.00, 
422.00, 
423.00, 
424.00, 
425.00, 
426.00, 
427.00, 
428.00, 
429.00, 
430.00, 
431.00, 
432.00, 
433.00, 
434.00, 
435.00, 
436.00, 
437.00, 
438.00, 
439.00, 
440.00, 
441.00, 
442.00, 
443.00, 
444.00, 
445.00, 
446.00, 
447.00, 
448.00, 
449.00, 
450.00, 
451.00, 
452.00, 
453.00, 
454.00, 
455.00, 
456.00, 
457.00, 
458.00, 
459.00, 
460.00, 
461.00, 
462.00, 
463.00, 
464.00, 
465.00, 
466.00, 
467.00, 
468.00, 
469.00, 
470.00, 
471.00, 
472.00, 
473.00, 
474.00, 
475.00, 
476.00, 
477.00, 
478.00, 
479.00, 
480.00, 
481.00, 
482.00, 
483.00, 
484.00, 
485.00, 
486.00, 
487.00, 
488.00, 
489.00, 
490.00, 
491.00, 
492.00, 
493.00, 
494.00, 
495.00, 
496.00, 
497.00, 
498.00, 
499.00, 
500.00, 
501.00, 
502.00, 
503.00, 
504.00, 
505.00, 
506.00, 
507.00, 
508.00, 
509.00, 
510.00, 
511.00, 
512.00, 
513.00, 
514.00, 
515.00, 
516.00, 
517.00, 
518.00, 
519.00, 
520.00, 
521.00, 
522.00, 
523.00, 
524.00, 
525.00, 
526.00, 
527.00, 
528.00, 
529.00, 
530.00, 
531.00, 
532.00, 
533.00, 
534.00, 
535.00, 
536.00, 
537.00, 
538.00, 
539.00, 
540.00, 
541.00, 
542.00, 
543.00, 
544.00, 
545.00, 
546.00, 
547.00, 
548.00, 
549.00, 
550.00, 
551.00, 
552.00, 
553.00, 
554.00, 
555.00, 
556.00, 
557.00, 
558.00, 
559.00, 
560.00, 
561.00, 
562.00, 
563.00, 
564.00, 
565.00, 
566.00, 
567.00, 
568.00, 
569.00, 
570.00, 
571.00, 
572.00, 
573.00, 
574.00, 
575.00, 
576.00, 
577.00, 
578.00, 
579.00, 
580.00, 
581.00, 
582.00, 
583.00, 
584.00, 
585.00, 
586.00, 
587.00, 
588.00, 
589.00, 
590.00, 
591.00, 
592.00, 
593.00, 
594.00, 
595.00, 
596.00, 
597.00, 
598.00, 
599.00, 
600.00, 
601.00, 
602.00, 
603.00, 
604.00, 
605.00, 
606.00, 
607.00, 
608.00, 
609.00, 
610.00, 
611.00, 
612.00, 
613.00, 
614.00, 
615.00, 
616.00, 
617.00, 
618.00, 
619.00, 
620.00, 
621.00, 
622.00, 
623.00, 
624.00, 
625.00, 
626.00, 
627.00, 
628.00, 
629.00, 
630.00, 
631.00, 
632.00, 
633.00, 
634.00, 
635.00, 
636.00, 
637.00, 
638.00, 
639.00, 
640.00, 
641.00, 
642.00, 
643.00, 
644.00, 
645.00, 
646.00, 
647.00, 
648.00, 
649.00, 
650.00, 
651.00, 
652.00, 
653.00, 
654.00, 
655.00, 
656.00, 
657.00, 
658.00, 
659.00, 
660.00, 
661.00, 
662.00, 
663.00, 
664.00, 
665.00, 
666.00, 
667.00, 
668.00, 
669.00, 
670.00, 
671.00, 
672.00, 
673.00, 
674.00, 
675.00, 
676.00, 
677.00, 
678.00, 
679.00, 
680.00, 
681.00, 
682.00, 
683.00, 
684.00, 
685.00, 
686.00, 
687.00, 
688.00, 
689.00, 
690.00, 
691.00, 
692.00, 
693.00, 
694.00, 
695.00, 
696.00, 
697.00, 
698.00, 
699.00, 
700.00, 
701.00, 
702.00, 
703.00, 
704.00, 
705.00, 
706.00, 
707.00, 
708.00, 
709.00, 
710.00, 
711.00, 
712.00, 
713.00, 
714.00, 
715.00, 
716.00, 
717.00, 
718.00, 
719.00, 
720.00, 
721.00, 
722.00, 
723.00, 
724.00, 
725.00, 
726.00, 
727.00, 
728.00, 
729.00, 
730.00, 
731.00, 
732.00, 
733.00, 
734.00, 
735.00, 
736.00, 
737.00, 
738.00, 
739.00, 
740.00, 
741.00, 
742.00, 
743.00, 
744.00, 
745.00, 
746.00, 
747.00, 
748.00, 
749.00, 
750.00, 
751.00, 
752.00, 
753.00, 
754.00, 
755.00, 
756.00, 
757.00, 
758.00, 
759.00, 
760.00, 
761.00, 
762.00, 
763.00, 
764.00, 
765.00, 
766.00, 
767.00, 
768.00, 
769.00, 
770.00, 
771.00, 
772.00, 
773.00, 
774.00, 
775.00, 
776.00, 
777.00, 
778.00, 
779.00, 
780.00, 
781.00, 
782.00, 
783.00, 
784.00, 
785.00, 
786.00, 
787.00, 
788.00, 
789.00, 
790.00, 
791.00, 
792.00, 
793.00, 
794.00, 
795.00, 
796.00, 
797.00, 
798.00, 
799.00, 
800.00, 
801.00, 
802.00, 
803.00, 
804.00, 
805.00, 
806.00, 
807.00, 
808.00, 
809.00, 
810.00, 
811.00, 
812.00, 
813.00, 
814.00, 
815.00, 
816.00, 
817.00, 
818.00, 
819.00, 
820.00, 
821.00, 
822.00, 
823.00, 
824.00, 
825.00, 
826.00, 
827.00, 
828.00, 
829.00, 
830.00, 
831.00, 
832.00, 
833.00, 
834.00, 
835.00, 
836.00, 
837.00, 
838.00, 
839.00, 
840.00, 
841.00, 
842.00, 
843.00, 
844.00, 
845.00, 
846.00, 
847.00, 
848.00, 
849.00, 
850.00, 
851.00, 
852.00, 
853.00, 
854.00, 
855.00, 
856.00, 
857.00, 
858.00, 
859.00, 
860.00, 
861.00, 
862.00, 
863.00, 
864.00, 
865.00, 
866.00, 
867.00, 
868.00, 
869.00, 
870.00, 
871.00, 
872.00, 
873.00, 
874.00, 
875.00, 
876.00, 
877.00, 
878.00, 
879.00, 
880.00, 
881.00, 
882.00, 
883.00, 
884.00, 
885.00, 
886.00, 
887.00, 
888.00, 
889.00, 
890.00, 
891.00, 
892.00, 
893.00, 
894.00, 
895.00, 
896.00, 
897.00, 
898.00, 
899.00, 
900.00, 
901.00, 
902.00, 
903.00, 
904.00, 
905.00, 
906.00, 
907.00, 
908.00, 
909.00, 
910.00, 
911.00, 
912.00, 
913.00, 
914.00, 
915.00, 
916.00, 
917.00, 
918.00, 
919.00, 
920.00, 
921.00, 
922.00, 
923.00, 
924.00, 
925.00, 
926.00, 
927.00, 
928.00, 
929.00, 
930.00, 
931.00, 
932.00, 
933.00, 
934.00, 
935.00, 
936.00, 
937.00, 
938.00, 
939.00, 
940.00, 
941.00, 
942.00, 
943.00, 
944.00, 
945.00, 
946.00, 
947.00, 
948.00, 
949.00, 
950.00, 
951.00, 
952.00, 
953.00, 
954.00, 
955.00, 
956.00, 
957.00, 
958.00, 
959.00, 
960.00, 
961.00, 
962.00, 
963.00, 
964.00, 
965.00, 
966.00, 
967.00, 
968.00, 
969.00, 
970.00, 
971.00, 
972.00, 
973.00, 
974.00, 
975.00, 
976.00, 
977.00, 
978.00, 
979.00, 
980.00, 
981.00, 
982.00, 
983.00, 
984.00, 
985.00, 
986.00, 
987.00, 
988.00, 
989.00, 
990.00, 
991.00, 
992.00, 
993.00, 
994.00, 
995.00, 
996.00, 
997.00, 
998.00, 
999.00, 
1000.00,0.0618
1001.00, 
1002.00,0.0612
1003.00, 
1004.00,0.0603
1005.00, 
1006.00,0.0594
1007.00, 
1008.00,0.0586
1009.00, 
1010.00,0.0577
1011.00, 
1012.00,0.0569
1013.00, 
1014.00,0.0560
1015.00, 
1016.00,0.0552
1017.00, 
1018.00,0.0543
1019.00, 
1020.00,0.0536
1021.00, 
1022.00,0.0529
1023.00, 
1024.00,0.0521
1025.00, 
1026.00,0.0514
1027.00, 
1028.00,0.0506
1029.00, 
1030.00,0.0498
1031.00, 
1032.00,0.0491
1033.00, 
1034.00,0.0483
1035.00, 
1036.00,0.0475
1037.00, 
1038.00,0.0469
1039.00, 
1040.00,0.0463
1041.00, 
1042.00,0.0457
1043.00, 
1044.00,0.0450
1045.00, 
1046.00,0.0444
1047.00, 
1048.00,0.0437
1049.00, 
1050.00,0.0431
1051.00, 
1052.00,0.0425
1053.00, 
1054.00,0.0420
1055.00, 
1056.00,0.0414
1057.00, 
1058.00,0.0408
1059.00, 
1060.00,0.0402
1061.00, 
1062.00,0.0397
1063.00, 
1064.00,0.0392
1065.00, 
1066.00,0.0388
1067.00, 
1068.00,0.0383
1069.00, 
1070.00,0.0377
1071.00, 
1072.00,0.0372
1073.00, 
1074.00,0.0368
1075.00, 
1076.00,0.0364
1077.00, 
1078.00,0.0361
1079.00, 
1080.00,0.0357
1081.00, 
1082.00,0.0355
1083.00, 
1084.00,0.0351
1085.00, 
1086.00,0.0349
1087.00, 
1088.00,0.0344
1089.00, 
1090.00,0.0341
1091.00, 
1092.00,0.0337
1093.00, 
1094.00,0.0334
1095.00, 
1096.00,0.0330
1097.00, 
1098.00,0.0328
1099.00, 
1100.00,0.0325
1101.00, 
1102.00,0.0323
1103.00, 
1104.00,0.0320
1105.00, 
1106.00,0.0318
1107.00, 
1108.00,0.0316
1109.00, 
1110.00,0.0313
1111.00, 
1112.00,0.0311
1113.00, 
1114.00,0.0309
1115.00, 
1116.00,0.0310
1117.00, 
1118.00,0.0307
1119.00, 
1120.00,0.0305
1121.00, 
1122.00,0.0302
1123.00, 
1124.00,0.0300
1125.00, 
1126.00,0.0298
1127.00, 
1128.00,0.0295
1129.00, 
1130.00,0.0293
1131.00, 
1132.00,0.0291
1133.00, 
1134.00,0.0290
1135.00, 
1136.00,0.0289
1137.00, 
1138.00,0.0288
1139.00, 
1140.00,0.0286
1141.00, 
1142.00,0.0286
1143.00, 
1144.00,0.0285
1145.00, 
1146.00,0.0285
1147.00, 
1148.00,0.0284
1149.00, 
1150.00,0.0284
1151.00, 
1152.00,0.0282
1153.00, 
1154.00,0.0282
1155.00, 
1156.00,0.0281
1157.00, 
1158.00,0.0281
1159.00, 
1160.00,0.0279
1161.00, 
1162.00,0.0278
1163.00, 
1164.00,0.0277
1165.00, 
1166.00,0.0277
1167.00, 
1168.00,0.0277
1169.00, 
1170.00,0.0277
1171.00, 
1172.00,0.0276
1173.00, 
1174.00,0.0276
1175.00, 
1176.00,0.0276
1177.00, 
1178.00,0.0277
1179.00, 
1180.00,0.0274
1181.00, 
1182.00,0.0274
1183.00, 
1184.00,0.0272
1185.00, 
1186.00,0.0275
1187.00, 
1188.00,0.0275
1189.00, 
1190.00,0.0276
1191.00, 
1192.00,0.0276
1193.00, 
1194.00,0.0275
1195.00, 
1196.00,0.0275
1197.00, 
1198.00,0.0276
1199.00, 
1200.00,0.0277
1201.00, 
1202.00,0.0278
1203.00, 
1204.00,0.0278
1205.00, 
1206.00,0.0277
1207.00, 
1208.00,0.0278
1209.00, 
1210.00,0.0277
1211.00, 
1212.00,0.0277
1213.00, 
1214.00,0.0277
1215.00, 
1216.00,0.0279
1217.00, 
1218.00,0.0280
1219.00, 
1220.00,0.0280
1221.00, 
1222.00,0.0280
1223.00, 
1224.00,0.0282
1225.00, 
1226.00,0.0282
1227.00, 
1228.00,0.0284
1229.00, 
1230.00,0.0283
1231.00, 
1232.00,0.0284
1233.00, 
1234.00,0.0285
1235.00, 
1236.00,0.0286
1237.00, 
1238.00,0.0287
1239.00, 
1240.00,0.0288
1241.00, 
1242.00,0.0289
1243.00, 
1244.00,0.0290
1245.00, 
1246.00,0.0291
1247.00, 
1248.00,0.0292
1249.00, 
1250.00,0.0293
1251.00, 
1252.00,0.0293
1253.00, 
1254.00,0.0294
1255.00, 
1256.00,0.0295
1257.00, 
1258.00,0.0297
1259.00, 
1260.00,0.0298
1261.00, 
1262.00,0.0299
1263.00, 
1264.00,0.0299
1265.00, 
1266.00,0.0300
1267.00, 
1268.00,0.0302
1269.00, 
1270.00,0.0304
1271.00, 
1272.00,0.0305
1273.00, 
1274.00,0.0305
1275.00, 
1276.00,0.0306
1277.00, 
1278.00,0.0307
1279.00, 
1280.00,0.0309
1281.00, 
1282.00,0.0309
1283.00, 
1284.00,0.0310
1285.00, 
1286.00,0.0312
1287.00, 
1288.00,0.0314
1289.00, 
1290.00,0.0316
1291.00, 
1292.00,0.0317
1293.00, 
1294.00,0.0319
1295.00, 
1296.00,0.0322
1297.00, 
1298.00,0.0324
1299.00, 
1300.00,0.0325
1301.00, 
1302.00,0.0326
1303.00, 
1304.00,0.0328
1305.00, 
1306.00,0.0329
1307.00, 
1308.00,0.0329
1309.00, 
1310.00,0.0327
1311.00, 
1312.00,0.0328
1313.00, 
1314.00,0.0329
1315.00, 
1316.00,0.0333
1317.00, 
1318.00,0.0335
1319.00, 
1320.00,0.0341
1321.00, 
1322.00,0.0344
1323.00, 
1324.00,0.0348
1325.00, 
1326.00,0.0349
1327.00, 
1328.00,0.0352
1329.00, 
1330.00,0.0354
1331.00, 
1332.00,0.0357
1333.00, 
1334.00,0.0359
1335.00, 
1336.00,0.0362
1337.00, 
1338.00,0.0364
1339.00, 
1340.00,0.0366
1341.00, 
1342.00,0.0368
1343.00, 
1344.00,0.0370
1345.00, 
1346.00,0.0372
1347.00, 
1348.00,0.0374
1349.00, 
1350.00,0.0373
1351.00, 
1352.00,0.0375
1353.00, 
1354.00,0.0375
1355.00, 
1356.00,0.0379
1357.00, 
1358.00,0.0382
1359.00, 
1360.00,0.0388
1361.00, 
1362.00,0.0392
1363.00, 
1364.00,0.0394
1365.00, 
1366.00,0.0395
1367.00, 
1368.00,0.0397
1369.00, 
1370.00,0.0398
1371.00, 
1372.00,0.0401
1373.00, 
1374.00,0.0403
1375.00, 
1376.00,0.0407
1377.00, 
1378.00,0.0409
1379.00, 
1380.00,0.0412
1381.00, 
1382.00,0.0414
1383.00, 
1384.00,0.0416
1385.00, 
1386.00,0.0419
1387.00, 
1388.00,0.0423
1389.00, 
1390.00,0.0427
1391.00, 
1392.00,0.0430
1393.00, 
1394.00,0.0432
1395.00, 
1396.00,0.0433
1397.00, 
1398.00,0.0435
1399.00, 
1400.00,0.0437
1401.00, 
1402.00,0.0440
1403.00, 
1404.00,0.0442
1405.00, 
1406.00,0.0445
1407.00, 
1408.00,0.0447
1409.00, 
1410.00,0.0449
1411.00, 
1412.00,0.0453
1413.00, 
1414.00,0.0457
1415.00, 
1416.00,0.0461
1417.00, 
1418.00,0.0465
1419.00, 
1420.00,0.0468
1421.00, 
1422.00,0.0471
1423.00, 
1424.00,0.0474
1425.00, 
1426.00,0.0478
1427.00, 
1428.00,0.0482
1429.00, 
1430.00,0.0487
1431.00, 
1432.00,0.0489
1433.00, 
1434.00,0.0493
1435.00, 
1436.00,0.0495
1437.00, 
1438.00,0.0499
1439.00, 
1440.00,0.0500
1441.00, 
1442.00,0.0505
1443.00, 
1444.00,0.0507
1445.00, 
1446.00,0.0511
1447.00, 
1448.00,0.0514
1449.00, 
1450.00,0.0520
1451.00, 
1452.00,0.0524
1453.00, 
1454.00,0.0528
1455.00, 
1456.00,0.0530
1457.00, 
1458.00,0.0534
1459.00, 
1460.00,0.0537
1461.00, 
1462.00,0.0541
1463.00, 
1464.00,0.0545
1465.00, 
1466.00,0.0549
1467.00, 
1468.00,0.0551
1469.00, 
1470.00,0.0555
1471.00, 
1472.00,0.0558
1473.00, 
1474.00,0.0564
1475.00, 
1476.00,0.0567
1477.00, 
1478.00,0.0572
1479.00, 
1480.00,0.0576
1481.00, 
1482.00,0.0581
1483.00, 
1484.00,0.0585
1485.00, 
1486.00,0.0589
1487.00, 
1488.00,0.0592
1489.00, 
1490.00,0.0597
1491.00, 
1492.00,0.0601
1493.00, 
1494.00,0.0605
1495.00, 
1496.00,0.0609
1497.00, 
1498.00,0.0612
1499.00, 
1500.00,0.0616
1501.00, 
1502.00,0.0619
1503.00, 
1504.00,0.0621
1505.00, 
1506.00,0.0624
1507.00, 
1508.00,0.0628
1509.00, 
1510.00,0.0635
1511.00, 
1512.00,0.0645
1513.00, 
1514.00,0.0652
1515.00, 
1516.00,0.0655
1517.00, 
1518.00,0.0654
1519.00, 
1520.00,0.0657
1521.00, 
1522.00,0.0660
1523.00, 
1524.00,0.0664
1525.00, 
1526.00,0.0668
1527.00, 
1528.00,0.0673
1529.00, 
1530.00,0.0678
1531.00, 
1532.00,0.0683
1533.00, 
1534.00,0.0686
1535.00, 
1536.00,0.0688
1537.00, 
1538.00,0.0690
1539.00, 
1540.00,0.0696
1541.00, 
1542.00,0.0702
1543.00, 
1544.00,0.0708
1545.00, 
1546.00,0.0712
1547.00, 
1548.00,0.0715
1549.00, 
1550.00,0.0718
1551.00, 
1552.00,0.0723
1553.00, 
1554.00,0.0727
1555.00, 
1556.00,0.0732
1557.00, 
1558.00,0.0735
1559.00, 
1560.00,0.0739
1561.00, 
1562.00,0.0743
1563.00, 
1564.00,0.0749
1565.00, 
1566.00,0.0753
1567.00, 
1568.00,0.0758
1569.00, 
1570.00,0.0761
1571.00, 
1572.00,0.0766
1573.00, 
1574.00,0.0770
1575.00, 
1576.00,0.0776
1577.00, 
1578.00,0.0779
1579.00, 
1580.00,0.0782
1581.00, 
1582.00,0.0785
1583.00, 
1584.00,0.0791
1585.00, 
1586.00,0.0797
1587.00, 
1588.00,0.0802
1589.00, 
1590.00,0.0807
1591.00, 
1592.00,0.0811
1593.00, 
1594.00,0.0817
1595.00, 
1596.00,0.0822
1597.00, 
1598.00,0.0826
1599.00, 
1600.00,0.0831
1601.00, 
1602.00,0.0834
1603.00, 
1604.00,0.0841
1605.00, 
1606.00,0.0844
1607.00, 
1608.00,0.0849
1609.00, 
1610.00,0.0852
1611.00, 
1612.00,0.0859
1613.00, 
1614.00,0.0863
1615.00, 
1616.00,0.0868
1617.00, 
1618.00,0.0871
1619.00, 
1620.00,0.0875
1621.00, 
1622.00,0.0881
1623.00, 
1624.00,0.0886
1625.00, 
1626.00,0.0887
1627.00, 
1628.00,0.0890
1629.00, 
1630.00,0.0893
1631.00, 
1632.00,0.0901
1633.00, 
1634.00,0.0906
1635.00, 
1636.00,0.0910
1637.00, 
1638.00,0.0909
1639.00, 
1640.00,0.0914
1641.00, 
1642.00,0.0918
1643.00, 
1644.00,0.0927
1645.00, 
1646.00,0.0932
1647.00, 
1648.00,0.0936
1649.00, 
1650.00,0.0948
1651.00, 
1652.00,0.0959
1653.00, 
1654.00,0.0970
1655.00, 
1656.00,0.0975
1657.00, 
1658.00,0.0980
1659.00, 
1660.00,0.0984
1661.00, 
1662.00,0.0988
1663.00, 
1664.00,0.0992
1665.00, 
1666.00,0.0995
1667.00, 
1668.00,0.0998
1669.00, 
1670.00,0.1001
1671.00, 
1672.00,0.1005
1673.00, 
1674.00,0.1009
1675.00, 
1676.00,0.1013
1677.00, 
1678.00,0.1017
1679.00, 
1680.00,0.1021
1681.00, 
1682.00,0.1024
1683.00, 
1684.00,0.1026
1685.00, 
1686.00,0.1029
1687.00, 
1688.00,0.1033
1689.00, 
1690.00,0.1037
1691.00, 
1692.00,0.1041
1693.00, 
1694.00,0.1045
1695.00, 
1696.00,0.1049
1697.00, 
1698.00,0.1053
1699.00, 
1700.00,0.1055
1701.00, 
1702.00,0.1058
1703.00, 
1704.00,0.1061
1705.00, 
1706.00,0.1064
1707.00, 
1708.00,0.1067
1709.00, 
1710.00,0.1071
1711.00, 
1712.00,0.1075
1713.00, 
1714.00,0.1078
1715.00, 
1716.00,0.1082
1717.00, 
1718.00,0.1084
1719.00, 
1720.00,0.1087
1721.00, 
1722.00,0.1090
1723.00, 
1724.00,0.1094
1725.00, 
1726.00,0.1097
1727.00, 
1728.00,0.1101
1729.00, 
1730.00,0.1104
1731.00, 
1732.00,0.1107
1733.00, 
1734.00,0.1112
1735.00, 
1736.00,0.1114
1737.00, 
1738.00,0.1117
1739.00, 
1740.00,0.1118
1741.00, 
1742.00,0.1122
1743.00, 
1744.00,0.1126
1745.00, 
1746.00,0.1130
1747.00, 
1748.00,0.1133
1749.00, 
1750.00,0.1135
1751.00, 
1752.00,0.1139
1753.00, 
1754.00,0.1143
1755.00, 
1756.00,0.1146
1757.00, 
1758.00,0.1148
1759.00, 
1760.00,0.1150
1761.00, 
1762.00,0.1153
1763.00, 
1764.00,0.1156
1765.00, 
1766.00,0.1159
1767.00, 
1768.00,0.1163
1769.00, 
1770.00,0.1166
1771.00, 
1772.00,0.1169
1773.00, 
1774.00,0.1172
1775.00, 
1776.00,0.1175
1777.00, 
1778.00,0.1177
1779.00, 
1780.00,0.1180
1781.00, 
1782.00,0.1184
1783.00, 
1784.00,0.1187
1785.00, 
1786.00,0.1190
1787.00, 
1788.00,0.1193
1789.00, 
1790.00,0.1195
1791.00, 
1792.00,0.1199
1793.00, 
1794.00,0.1201
1795.00, 
1796.00,0.1203
1797.00, 
1798.00,0.1204
1799.00, 
1800.00,0.1206
1801.00, 
1802.00,0.1209
1803.00, 
1804.00,0.1215
1805.00, 
1806.00,0.1219
1807.00, 
1808.00,0.1223
1809.00, 
1810.00,0.1227
1811.00, 
1812.00,0.1230
1813.00, 
1814.00,0.1233
1815.00, 
1816.00,0.1236
1817.00, 
1818.00,0.1238
1819.00, 
1820.00,0.1241
1821.00, 
1822.00,0.1243
1823.00, 
1824.00,0.1248
1825.00, 
1826.00,0.1251
1827.00, 
1828.00,0.1252
1829.00, 
1830.00,0.1252
1831.00, 
1832.00,0.1253
1833.00, 
1834.00,0.1254
1835.00, 
1836.00,0.1258
1837.00, 
1838.00,0.1262
1839.00, 
1840.00,0.1268
1841.00, 
1842.00,0.1271
1843.00, 
1844.00,0.1274
1845.00, 
1846.00,0.1276
1847.00, 
1848.00,0.1281
1849.00, 
1850.00,0.1285
1851.00, 
1852.00,0.1287
1853.00, 
1854.00,0.1287
1855.00, 
1856.00,0.1287
1857.00, 
1858.00,0.1287
1859.00, 
1860.00,0.1288
1861.00, 
1862.00,0.1290
1863.00, 
1864.00,0.1289
1865.00, 
1866.00,0.1286
1867.00, 
1868.00,0.1284
1869.00, 
1870.00,0.1287
1871.00, 
1872.00,0.1293
1873.00, 
1874.00,0.1299
1875.00, 
1876.00,0.1302
1877.00, 
1878.00,0.1302
1879.00, 
1880.00,0.1303
1881.00, 
1882.00,0.1305
1883.00, 
1884.00,0.1306
1885.00, 
1886.00,0.1307
1887.00, 
1888.00,0.1307
1889.00, 
1890.00,0.1310
1891.00, 
1892.00,0.1312
1893.00, 
1894.00,0.1316
1895.00, 
1896.00,0.1318
1897.00, 
1898.00,0.1321
1899.00, 
1900.00,0.1325
1901.00, 
1902.00,0.1331
1903.00, 
1904.00,0.1335
1905.00, 
1906.00,0.1335
1907.00, 
1908.00,0.1334
1909.00, 
1910.00,0.1332
1911.00, 
1912.00,0.1330
1913.00, 
1914.00,0.1328
1915.00, 
1916.00,0.1326
1917.00, 
1918.00,0.1326
1919.00, 
1920.00,0.1326
1921.00, 
1922.00,0.1328
1923.00, 
1924.00,0.1331
1925.00, 
1926.00,0.1333
1927.00, 
1928.00,0.1336
1929.00, 
1930.00,0.1339
1931.00, 
1932.00,0.1344
1933.00, 
1934.00,0.1345
1935.00, 
1936.00,0.1346
1937.00, 
1938.00,0.1344
1939.00, 
1940.00,0.1344
1941.00, 
1942.00,0.1341
1943.00, 
1944.00,0.1341
1945.00, 
1946.00,0.1343
1947.00, 
1948.00,0.1345
1949.00, 
1950.00,0.1347
1951.00, 
1952.00,0.1347
1953.00, 
1954.00,0.1347
1955.00, 
1956.00,0.1348
1957.00, 
