"20-30mM-CF20mM - RawData"
"Wavelength nm."	"Abs."
300.00	0.1107
301.00	0.1115
302.00	0.1125
303.00	0.1137
304.00	0.1146
305.00	0.1151
306.00	0.1163
307.00	0.1176
308.00	0.1192
309.00	0.1209
310.00	0.1219
311.00	0.1229
312.00	0.1243
313.00	0.1256
314.00	0.1270
315.00	0.1292
316.00	0.1317
317.00	0.1337
318.00	0.1360
319.00	0.1379
320.00	0.1399
321.00	0.1418
322.00	0.1437
323.00	0.1456
324.00	0.1478
325.00	0.1500
326.00	0.1521
327.00	0.1543
328.00	0.1564
329.00	0.1585
330.00	0.1602
331.00	0.1620
332.00	0.1635
333.00	0.1655
334.00	0.1677
335.00	0.1701
336.00	0.1728
337.00	0.1758
338.00	0.1779
339.00	0.1801
340.00	0.1824
341.00	0.1845
342.00	0.1867
343.00	0.1891
344.00	0.1914
345.00	0.1932
346.00	0.1950
347.00	0.1966
348.00	0.1980
349.00	0.1992
350.00	0.2006
351.00	0.2019
352.00	0.2031
353.00	0.2044
354.00	0.2056
355.00	0.2067
356.00	0.2077
357.00	0.2087
358.00	0.2096
359.00	0.2105
360.00	0.2113
361.00	0.2119
362.00	0.2120
363.00	0.2130
364.00	0.2140
365.00	0.2151
366.00	0.2165
367.00	0.2183
368.00	0.2192
369.00	0.2203
370.00	0.2217
371.00	0.2223
372.00	0.2229
373.00	0.2233
374.00	0.2234
375.00	0.2232
376.00	0.2238
377.00	0.2245
378.00	0.2253
379.00	0.2261
380.00	0.2271
381.00	0.2281
382.00	0.2289
383.00	0.2302
384.00	0.2314
385.00	0.2325
386.00	0.2338
387.00	0.2352
388.00	0.2362
389.00	0.2374
390.00	0.2386
391.00	0.2396
392.00	0.2408
393.00	0.2419
394.00	0.2429
395.00	0.2439
396.00	0.2448
397.00	0.2455
398.00	0.2460
399.00	0.2468
400.00	0.2476
401.00	0.2487
402.00	0.2500
403.00	0.2515
404.00	0.2529
405.00	0.2543
406.00	0.2556
407.00	0.2569
408.00	0.2581
409.00	0.2593
410.00	0.2605
411.00	0.2617
412.00	0.2628
413.00	0.2637
414.00	0.2647
415.00	0.2653
416.00	0.2657
417.00	0.2660
418.00	0.2662
419.00	0.2659
420.00	0.2657
421.00	0.2653
422.00	0.2648
423.00	0.2642
424.00	0.2636
425.00	0.2629
426.00	0.2623
427.00	0.2617
428.00	0.2611
429.00	0.2604
430.00	0.2598
431.00	0.2592
432.00	0.2585
433.00	0.2580
434.00	0.2576
435.00	0.2574
436.00	0.2571
437.00	0.2569
438.00	0.2566
439.00	0.2563
440.00	0.2560
441.00	0.2555
442.00	0.2551
443.00	0.2548
444.00	0.2545
445.00	0.2542
446.00	0.2541
447.00	0.2542
448.00	0.2541
449.00	0.2541
450.00	0.2542
451.00	0.2547
452.00	0.2551
453.00	0.2558
454.00	0.2563
455.00	0.2569
456.00	0.2573
457.00	0.2579
458.00	0.2585
459.00	0.2593
460.00	0.2602
461.00	0.2611
462.00	0.2620
463.00	0.2627
464.00	0.2637
465.00	0.2644
466.00	0.2651
467.00	0.2658
468.00	0.2669
469.00	0.2677
470.00	0.2687
471.00	0.2695
472.00	0.2704
473.00	0.2712
474.00	0.2720
475.00	0.2729
476.00	0.2737
477.00	0.2746
478.00	0.2753
479.00	0.2760
480.00	0.2765
481.00	0.2771
482.00	0.2775
483.00	0.2780
484.00	0.2785
485.00	0.2789
486.00	0.2793
487.00	0.2797
488.00	0.2800
489.00	0.2802
490.00	0.2805
491.00	0.2807
492.00	0.2811
493.00	0.2815
494.00	0.2819
495.00	0.2822
496.00	0.2825
497.00	0.2827
498.00	0.2828
499.00	0.2829
500.00	0.2830
501.00	0.2832
502.00	0.2831
503.00	0.2832
504.00	0.2833
505.00	0.2835
506.00	0.2834
507.00	0.2832
508.00	0.2830
509.00	0.2826
510.00	0.2822
511.00	0.2819
512.00	0.2815
513.00	0.2810
514.00	0.2805
515.00	0.2800
516.00	0.2794
517.00	0.2786
518.00	0.2778
519.00	0.2769
520.00	0.2761
521.00	0.2753
522.00	0.2745
523.00	0.2738
524.00	0.2729
525.00	0.2719
526.00	0.2709
527.00	0.2699
528.00	0.2689
529.00	0.2689
530.00	0.2680
531.00	0.2668
532.00	0.2658
533.00	0.2648
534.00	0.2630
535.00	0.2624
536.00	0.2619
537.00	0.2614
538.00	0.2604
539.00	0.2595
540.00	0.2582
541.00	0.2567
542.00	0.2553
543.00	0.2543
544.00	0.2535
545.00	0.2525
546.00	0.2516
547.00	0.2507
548.00	0.2499
549.00	0.2488
550.00	0.2480
551.00	0.2471
552.00	0.2462
553.00	0.2453
554.00	0.2443
555.00	0.2433
556.00	0.2424
557.00	0.2414
558.00	0.2406
559.00	0.2398
560.00	0.2388
561.00	0.2378
562.00	0.2369
563.00	0.2361
564.00	0.2351
565.00	0.2343
566.00	0.2334
567.00	0.2324
568.00	0.2312
569.00	0.2302
570.00	0.2292
571.00	0.2282
572.00	0.2273
573.00	0.2263
574.00	0.2253
575.00	0.2241
576.00	0.2229
577.00	0.2217
578.00	0.2206
579.00	0.2194
580.00	0.2183
581.00	0.2174
582.00	0.2163
583.00	0.2152
584.00	0.2140
585.00	0.2129
586.00	0.2116
587.00	0.2104
588.00	0.2091
589.00	0.2079
590.00	0.2065
591.00	0.2053
592.00	0.2040
593.00	0.2028
594.00	0.2016
595.00	0.2003
596.00	0.1989
597.00	0.1975
598.00	0.1961
599.00	0.1949
600.00	0.1936
601.00	0.1925
602.00	0.1914
603.00	0.1903
604.00	0.1892
605.00	0.1881
606.00	0.1868
607.00	0.1855
608.00	0.1844
609.00	0.1834
610.00	0.1824
611.00	0.1814
612.00	0.1804
613.00	0.1792
614.00	0.1782
615.00	0.1772
616.00	0.1765
617.00	0.1757
618.00	0.1748
619.00	0.1739
620.00	0.1729
621.00	0.1720
622.00	0.1713
623.00	0.1708
624.00	0.1704
625.00	0.1698
626.00	0.1692
627.00	0.1685
628.00	0.1679
629.00	0.1673
630.00	0.1668
631.00	0.1664
632.00	0.1658
633.00	0.1652
634.00	0.1647
635.00	0.1643
636.00	0.1638
637.00	0.1636
638.00	0.1633
639.00	0.1630
640.00	0.1626
641.00	0.1622
642.00	0.1618
643.00	0.1616
644.00	0.1613
645.00	0.1611
646.00	0.1610
647.00	0.1610
648.00	0.1610
649.00	0.1611
650.00	0.1612
651.00	0.1613
652.00	0.1611
653.00	0.1608
654.00	0.1604
655.00	0.1603
656.00	0.1602
657.00	0.1606
658.00	0.1606
659.00	0.1610
660.00	0.1609
661.00	0.1609
662.00	0.1609
663.00	0.1609
664.00	0.1607
665.00	0.1609
666.00	0.1613
667.00	0.1612
668.00	0.1612
669.00	0.1613
670.00	0.1621
671.00	0.1620
672.00	0.1624
673.00	0.1629
674.00	0.1634
675.00	0.1631
676.00	0.1633
677.00	0.1633
678.00	0.1634
679.00	0.1635
680.00	0.1636
681.00	0.1639
682.00	0.1643
683.00	0.1647
684.00	0.1649
685.00	0.1650
686.00	0.1650
687.00	0.1651
688.00	0.1650
689.00	0.1652
690.00	0.1651
691.00	0.1655
692.00	0.1656
693.00	0.1659
694.00	0.1659
695.00	0.1663
696.00	0.1661
697.00	0.1659
698.00	0.1657
699.00	0.1656
700.00	0.1655
701.00	0.1654
702.00	0.1656
703.00	0.1660
704.00	0.1662
705.00	0.1663
706.00	0.1667
707.00	0.1667
708.00	0.1670
709.00	0.1672
710.00	0.1675
711.00	0.1677
712.00	0.1680
713.00	0.1679
714.00	0.1680
715.00	0.1684
716.00	0.1692
717.00	0.1690
718.00	0.1690
719.00	0.1690
720.00	0.1688
721.00	0.1681
722.00	0.1684
723.00	0.1685
724.00	0.1680
725.00	0.1685
726.00	0.1678
727.00	0.1680
728.00	0.1681
729.00	0.1687
730.00	0.1683
731.00	0.1694
732.00	0.1696
733.00	0.1699
734.00	0.1702
735.00	0.1706
736.00	0.1707
737.00	0.1710
738.00	0.1712
739.00	0.1717
740.00	0.1721
741.00	0.1726
742.00	0.1729
743.00	0.1731
744.00	0.1733
745.00	0.1735
746.00	0.1738
747.00	0.1737
748.00	0.1745
749.00	0.1749
750.00	0.1754
751.00	0.1758
752.00	0.1764
753.00	0.1763
754.00	0.1766
755.00	0.1768
756.00	0.1771
757.00	0.1776
758.00	0.1781
759.00	0.1782
760.00	0.1785
761.00	0.1787
762.00	0.1788
763.00	0.1789
764.00	0.1792
765.00	0.1795
766.00	0.1798
767.00	0.1798
768.00	0.1799
769.00	0.1798
770.00	0.1797
771.00	0.1793
772.00	0.1794
773.00	0.1797
774.00	0.1798
775.00	0.1797
776.00	0.1797
777.00	0.1791
778.00	0.1783
779.00	0.1776
780.00	0.1770
781.00	0.1762
782.00	0.1756
783.00	0.1751
784.00	0.1749
785.00	0.1748
786.00	0.1744
787.00	0.1741
788.00	0.1738
789.00	0.1733
790.00	0.1727
791.00	0.1722
792.00	0.1715
793.00	0.1709
794.00	0.1702
795.00	0.1693
796.00	0.1684
797.00	0.1670
798.00	0.1658
799.00	0.1647
800.00	0.1638
801.00	0.1629
802.00	0.1625
803.00	0.1618
804.00	0.1610
805.00	0.1603
806.00	0.1595
807.00	0.1589
808.00	0.1582
809.00	0.1577
810.00	0.1571
811.00	0.1567
812.00	0.1561
813.00	0.1555
814.00	0.1552
815.00	0.1549
816.00	0.1546
817.00	0.1546
818.00	0.1545
819.00	0.1543
820.00	0.1543
821.00	0.1542
822.00	0.1540
823.00	0.1538
824.00	0.1536
825.00	0.1535
826.00	0.1533
827.00	0.1533
828.00	0.1535
829.00	0.1538
830.00	0.1539
831.00	0.1544
832.00	0.1545
833.00	0.1547
834.00	0.1548
835.00	0.1550
836.00	0.1551
837.00	0.1553
838.00	0.1556
839.00	0.1558
840.00	0.1561
841.00	0.1564
842.00	0.1568
843.00	0.1571
844.00	0.1576
845.00	0.1579
846.00	0.1583
847.00	0.1590
848.00	0.1596
849.00	0.1599
850.00	0.1604
851.00	0.1608
852.00	0.1607
853.00	0.1608
854.00	0.1609
855.00	0.1611
856.00	0.1612
857.00	0.1613
858.00	0.1613
859.00	0.1613
860.00	0.1613
861.00	0.1612
862.00	0.1613
863.00	0.1614
864.00	0.1614
865.00	0.1612
866.00	0.1612
867.00	0.1611
868.00	0.1610
869.00	0.1609
870.00	0.1610
871.00	0.1609
872.00	0.1608
873.00	0.1609
874.00	0.1609
875.00	0.1608
876.00	0.1604
877.00	0.1600
878.00	0.1594
879.00	0.1587
880.00	0.1581
881.00	0.1576
882.00	0.1570
883.00	0.1565
884.00	0.1557
885.00	0.1549
886.00	0.1540
887.00	0.1531
888.00	0.1522
889.00	0.1512
890.00	0.1501
891.00	0.1494
892.00	0.1484
893.00	0.1477
894.00	0.1468
895.00	0.1459
896.00	0.1448
897.00	0.1439
898.00	0.1430
899.00	0.1421
900.00	0.1414
901.00	0.1404
902.00	0.1396
903.00	0.1389
904.00	0.1381
905.00	0.1372
906.00	0.1364
907.00	0.1356
908.00	0.1344
909.00	0.1336
910.00	0.1326
911.00	0.1319
912.00	0.1310
913.00	0.1303
914.00	0.1295
915.00	0.1289
916.00	0.1281
917.00	0.1273
918.00	0.1266
919.00	0.1258
920.00	0.1250
921.00	0.1242
922.00	0.1235
923.00	0.1226
924.00	0.1218
925.00	0.1211
926.00	0.1205
927.00	0.1198
928.00	0.1191
929.00	0.1185
930.00	0.1178
931.00	0.1170
932.00	0.1162
933.00	0.1154
934.00	0.1147
935.00	0.1141
936.00	0.1135
937.00	0.1127
938.00	0.1123
939.00	0.1114
940.00	0.1107
941.00	0.1101
942.00	0.1096
943.00	0.1088
944.00	0.1084
945.00	0.1078
946.00	0.1071
947.00	0.1065
948.00	0.1060
949.00	0.1053
950.00	0.1045
951.00	0.1040
952.00	0.1034
953.00	0.1027
954.00	0.1020
955.00	0.1014
956.00	0.1008
957.00	0.1000
958.00	0.0993
959.00	0.0987
960.00	0.0983
961.00	0.0975
962.00	0.0971
963.00	0.0968
964.00	0.0962
965.00	0.0955
966.00	0.0951
967.00	0.0944
968.00	0.0937
969.00	0.0931
970.00	0.0926
971.00	0.0920
972.00	0.0914
973.00	0.0908
974.00	0.0903
975.00	0.0898
976.00	0.0892
977.00	0.0888
978.00	0.0883
979.00	0.0877
980.00	0.0871
981.00	0.0866
982.00	0.0860
983.00	0.0856
984.00	0.0851
985.00	0.0845
986.00	0.0841
987.00	0.0835
988.00	0.0831
989.00	0.0826
990.00	0.0821
991.00	0.0814
992.00	0.0808
993.00	0.0802
994.00	0.0797
995.00	0.0793
996.00	0.0788
997.00	0.0784
998.00	0.0779
999.00	0.0775
1000.00	0.0768
1001.00	0.0761
1002.00	0.0756
1003.00	0.0749
1004.00	0.0744
1005.00	0.0739
1006.00	0.0737
1007.00	0.0730
1008.00	0.0722
1009.00	0.0717
1010.00	0.0713
1011.00	0.0706
1012.00	0.0702
1013.00	0.0703
1014.00	0.0696
1015.00	0.0691
1016.00	0.0686
1017.00	0.0684
1018.00	0.0679
1019.00	0.0679
1020.00	0.0676
1021.00	0.0674
1022.00	0.0668
1023.00	0.0661
1024.00	0.0656
1025.00	0.0650
1026.00	0.0646
1027.00	0.0641
1028.00	0.0639
1029.00	0.0634
1030.00	0.0631
1031.00	0.0628
1032.00	0.0626
1033.00	0.0621
1034.00	0.0618
1035.00	0.0613
1036.00	0.0609
1037.00	0.0603
1038.00	0.0599
1039.00	0.0597
1040.00	0.0593
1041.00	0.0591
1042.00	0.0588
1043.00	0.0585
1044.00	0.0582
1045.00	0.0580
1046.00	0.0576
1047.00	0.0574
1048.00	0.0565
1049.00	0.0562
1050.00	0.0557
1051.00	0.0553
1052.00	0.0550
1053.00	0.0551
1054.00	0.0547
1055.00	0.0545
1056.00	0.0542
1057.00	0.0540
1058.00	0.0542
1059.00	0.0540
1060.00	0.0535
1061.00	0.0533
1062.00	0.0528
1063.00	0.0522
1064.00	0.0520
1065.00	0.0518
1066.00	0.0515
1067.00	0.0514
1068.00	0.0512
1069.00	0.0508
1070.00	0.0505
1071.00	0.0502
1072.00	0.0497
1073.00	0.0493
1074.00	0.0492
1075.00	0.0490
1076.00	0.0489
1077.00	0.0488
1078.00	0.0487
1079.00	0.0484
1080.00	0.0482
1081.00	0.0473
1082.00	0.0472
1083.00	0.0473
1084.00	0.0467
1085.00	0.0464
1086.00	0.0468
1087.00	0.0466
1088.00	0.0459
1089.00	0.0463
1090.00	0.0462
1091.00	0.0460
1092.00	0.0459
1093.00	0.0456
1094.00	0.0453
1095.00	0.0450
1096.00	0.0450
1097.00	0.0447
1098.00	0.0448
1099.00	0.0445
1100.00	0.0446
1101.00	0.0443
1102.00	0.0440
1103.00	0.0438
1104.00	0.0437
1105.00	0.0435
1106.00	0.0434
1107.00	0.0434
1108.00	0.0433
1109.00	0.0434
1110.00	0.0432
1111.00	0.0431
1112.00	0.0430
1113.00	0.0428
1114.00	0.0426
1115.00	0.0427
1116.00	0.0424
1117.00	0.0423
1118.00	0.0422
1119.00	0.0421
1120.00	0.0418
1121.00	0.0418
1122.00	0.0417
1123.00	0.0416
1124.00	0.0415
1125.00	0.0414
1126.00	0.0412
1127.00	0.0412
1128.00	0.0411
1129.00	0.0412
1130.00	0.0410
1131.00	0.0411
1132.00	0.0410
1133.00	0.0410
1134.00	0.0409
1135.00	0.0409
1136.00	0.0407
1137.00	0.0406
1138.00	0.0405
1139.00	0.0403
1140.00	0.0402
1141.00	0.0400
1142.00	0.0397
1143.00	0.0397
1144.00	0.0399
1145.00	0.0396
1146.00	0.0397
1147.00	0.0398
1148.00	0.0397
1149.00	0.0396
1150.00	0.0397
1151.00	0.0398
1152.00	0.0397
1153.00	0.0396
1154.00	0.0396
1155.00	0.0396
1156.00	0.0396
1157.00	0.0396
1158.00	0.0396
1159.00	0.0396
1160.00	0.0398
1161.00	0.0395
1162.00	0.0395
1163.00	0.0396
1164.00	0.0397
1165.00	0.0392
1166.00	0.0393
1167.00	0.0393
1168.00	0.0393
1169.00	0.0392
1170.00	0.0395
1171.00	0.0395
1172.00	0.0395
1173.00	0.0394
1174.00	0.0394
1175.00	0.0395
1176.00	0.0392
1177.00	0.0393
1178.00	0.0393
1179.00	0.0393
1180.00	0.0392
1181.00	0.0393
1182.00	0.0392
1183.00	0.0392
1184.00	0.0391
1185.00	0.0389
1186.00	0.0391
1187.00	0.0392
1188.00	0.0393
1189.00	0.0393
1190.00	0.0395
1191.00	0.0395
1192.00	0.0393
1193.00	0.0393
1194.00	0.0396
1195.00	0.0399
1196.00	0.0398
1197.00	0.0399
1198.00	0.0397
1199.00	0.0394
1200.00	0.0392
1201.00	0.0393
1202.00	0.0395
1203.00	0.0399
1204.00	0.0402
1205.00	0.0402
1206.00	0.0403
1207.00	0.0403
1208.00	0.0402
1209.00	0.0399
1210.00	0.0400
1211.00	0.0400
1212.00	0.0401
1213.00	0.0402
1214.00	0.0402
1215.00	0.0402
1216.00	0.0402
1217.00	0.0402
1218.00	0.0402
1219.00	0.0403
1220.00	0.0404
1221.00	0.0409
1222.00	0.0408
1223.00	0.0404
1224.00	0.0407
1225.00	0.0406
1226.00	0.0402
1227.00	0.0404
1228.00	0.0409
1229.00	0.0407
1230.00	0.0407
1231.00	0.0406
1232.00	0.0406
1233.00	0.0406
1234.00	0.0407
1235.00	0.0409
1236.00	0.0411
1237.00	0.0411
1238.00	0.0411
1239.00	0.0413
1240.00	0.0412
1241.00	0.0413
1242.00	0.0413
1243.00	0.0415
1244.00	0.0415
1245.00	0.0415
1246.00	0.0416
1247.00	0.0418
1248.00	0.0418
1249.00	0.0417
1250.00	0.0420
1251.00	0.0420
1252.00	0.0419
1253.00	0.0419
1254.00	0.0418
1255.00	0.0417
1256.00	0.0417
1257.00	0.0419
1258.00	0.0421
1259.00	0.0425
1260.00	0.0424
1261.00	0.0426
1262.00	0.0427
1263.00	0.0428
1264.00	0.0426
1265.00	0.0427
1266.00	0.0427
1267.00	0.0428
1268.00	0.0423
1269.00	0.0421
1270.00	0.0424
1271.00	0.0425
1272.00	0.0425
1273.00	0.0432
1274.00	0.0437
1275.00	0.0438
1276.00	0.0439
1277.00	0.0439
1278.00	0.0438
1279.00	0.0438
1280.00	0.0439
1281.00	0.0440
1282.00	0.0442
1283.00	0.0443
1284.00	0.0445
1285.00	0.0445
1286.00	0.0445
1287.00	0.0445
1288.00	0.0444
1289.00	0.0445
1290.00	0.0447
1291.00	0.0449
1292.00	0.0451
1293.00	0.0452
1294.00	0.0452
1295.00	0.0452
1296.00	0.0454
1297.00	0.0454
1298.00	0.0456
1299.00	0.0459
1300.00	0.0459
1301.00	0.0458
1302.00	0.0459
1303.00	0.0459
1304.00	0.0459
1305.00	0.0463
1306.00	0.0464
1307.00	0.0464
1308.00	0.0464
1309.00	0.0467
1310.00	0.0466
1311.00	0.0467
1312.00	0.0469
1313.00	0.0469
1314.00	0.0470
1315.00	0.0471
1316.00	0.0473
1317.00	0.0474
1318.00	0.0477
1319.00	0.0478
1320.00	0.0480
1321.00	0.0480
1322.00	0.0480
1323.00	0.0479
1324.00	0.0480
1325.00	0.0481
1326.00	0.0481
1327.00	0.0480
1328.00	0.0482
1329.00	0.0482
1330.00	0.0485
1331.00	0.0487
1332.00	0.0489
1333.00	0.0490
1334.00	0.0493
1335.00	0.0492
1336.00	0.0494
1337.00	0.0497
1338.00	0.0496
1339.00	0.0496
1340.00	0.0497
1341.00	0.0499
1342.00	0.0500
1343.00	0.0504
1344.00	0.0503
1345.00	0.0505
1346.00	0.0506
1347.00	0.0507
1348.00	0.0507
1349.00	0.0511
1350.00	0.0514
1351.00	0.0515
1352.00	0.0517
1353.00	0.0518
1354.00	0.0523
1355.00	0.0523
1356.00	0.0526
1357.00	0.0527
1358.00	0.0529
1359.00	0.0529
1360.00	0.0532
1361.00	0.0534
1362.00	0.0535
1363.00	0.0538
1364.00	0.0539
1365.00	0.0540
1366.00	0.0541
1367.00	0.0543
1368.00	0.0544
1369.00	0.0548
1370.00	0.0548
1371.00	0.0550
1372.00	0.0551
1373.00	0.0554
1374.00	0.0555
1375.00	0.0553
1376.00	0.0555
1377.00	0.0559
1378.00	0.0561
1379.00	0.0562
1380.00	0.0567
1381.00	0.0570
1382.00	0.0569
1383.00	0.0570
1384.00	0.0572
1385.00	0.0575
1386.00	0.0575
1387.00	0.0577
1388.00	0.0577
1389.00	0.0582
1390.00	0.0579
1391.00	0.0573
1392.00	0.0578
1393.00	0.0581
1394.00	0.0580
1395.00	0.0585
1396.00	0.0594
1397.00	0.0594
1398.00	0.0595
1399.00	0.0597
1400.00	0.0601
1401.00	0.0602
1402.00	0.0603
1403.00	0.0606
1404.00	0.0608
1405.00	0.0608
1406.00	0.0610
1407.00	0.0614
1408.00	0.0616
1409.00	0.0619
1410.00	0.0620
1411.00	0.0624
1412.00	0.0620
1413.00	0.0621
1414.00	0.0620
1415.00	0.0617
1416.00	0.0618
1417.00	0.0623
1418.00	0.0625
1419.00	0.0630
1420.00	0.0638
1421.00	0.0637
1422.00	0.0641
1423.00	0.0644
1424.00	0.0644
1425.00	0.0646
1426.00	0.0651
1427.00	0.0652
1428.00	0.0651
1429.00	0.0655
1430.00	0.0659
1431.00	0.0661
1432.00	0.0664
1433.00	0.0668
1434.00	0.0669
1435.00	0.0669
1436.00	0.0669
1437.00	0.0666
1438.00	0.0667
1439.00	0.0669
1440.00	0.0671
1441.00	0.0674
1442.00	0.0680
1443.00	0.0682
1444.00	0.0684
1445.00	0.0685
1446.00	0.0686
1447.00	0.0688
1448.00	0.0689
1449.00	0.0693
1450.00	0.0695
1451.00	0.0695
1452.00	0.0694
1453.00	0.0697
1454.00	0.0697
1455.00	0.0699
1456.00	0.0704
1457.00	0.0707
1458.00	0.0710
1459.00	0.0713
1460.00	0.0715
1461.00	0.0717
1462.00	0.0720
1463.00	0.0722
1464.00	0.0724
1465.00	0.0725
1466.00	0.0728
1467.00	0.0731
1468.00	0.0732
1469.00	0.0733
1470.00	0.0737
1471.00	0.0742
1472.00	0.0743
1473.00	0.0745
1474.00	0.0747
1475.00	0.0747
1476.00	0.0743
1477.00	0.0746
1478.00	0.0748
1479.00	0.0751
1480.00	0.0753
1481.00	0.0755
1482.00	0.0758
1483.00	0.0761
1484.00	0.0762
1485.00	0.0766
1486.00	0.0767
1487.00	0.0767
1488.00	0.0771
1489.00	0.0771
1490.00	0.0774
1491.00	0.0779
1492.00	0.0783
1493.00	0.0783
1494.00	0.0788
1495.00	0.0789
1496.00	0.0793
1497.00	0.0795
1498.00	0.0793
1499.00	0.0795
1500.00	0.0797
1501.00	0.0797
1502.00	0.0801
1503.00	0.0806
1504.00	0.0808
1505.00	0.0813
1506.00	0.0817
1507.00	0.0818
1508.00	0.0823
1509.00	0.0824
1510.00	0.0825
1511.00	0.0828
1512.00	0.0829
1513.00	0.0828
1514.00	0.0833
1515.00	0.0834
1516.00	0.0834
1517.00	0.0841
1518.00	0.0843
1519.00	0.0845
1520.00	0.0847
1521.00	0.0850
1522.00	0.0851
1523.00	0.0853
1524.00	0.0853
1525.00	0.0855
1526.00	0.0858
1527.00	0.0857
1528.00	0.0862
1529.00	0.0866
1530.00	0.0868
1531.00	0.0871
1532.00	0.0875
1533.00	0.0876
1534.00	0.0877
1535.00	0.0879
1536.00	0.0880
1537.00	0.0882
1538.00	0.0884
1539.00	0.0886
1540.00	0.0890
1541.00	0.0893
1542.00	0.0895
1543.00	0.0898
1544.00	0.0900
1545.00	0.0903
1546.00	0.0905
1547.00	0.0906
1548.00	0.0910
1549.00	0.0912
1550.00	0.0914
1551.00	0.0917
1552.00	0.0921
1553.00	0.0923
1554.00	0.0927
1555.00	0.0927
1556.00	0.0928
1557.00	0.0931
1558.00	0.0932
1559.00	0.0935
1560.00	0.0938
1561.00	0.0941
1562.00	0.0942
1563.00	0.0947
1564.00	0.0947
1565.00	0.0951
1566.00	0.0954
1567.00	0.0957
1568.00	0.0959
1569.00	0.0962
1570.00	0.0964
1571.00	0.0966
1572.00	0.0968
1573.00	0.0971
1574.00	0.0971
1575.00	0.0972
1576.00	0.0974
1577.00	0.0977
1578.00	0.0979
1579.00	0.0983
1580.00	0.0985
1581.00	0.0988
1582.00	0.0989
1583.00	0.0994
1584.00	0.0996
1585.00	0.0998
1586.00	0.1002
1587.00	0.0999
1588.00	0.1000
1589.00	0.1006
