"RawData - P3h-Doped F4tcnq_Xylene-5mmol"
"Wavelength nm.","Abs."
300.00, 
301.00, 
302.00, 
303.00, 
304.00, 
305.00, 
306.00, 
307.00, 
308.00, 
309.00, 
310.00, 
311.00, 
312.00, 
313.00, 
314.00, 
315.00, 
316.00, 
317.00, 
318.00, 
319.00, 
320.00, 
321.00, 
322.00, 
323.00, 
324.00, 
325.00, 
326.00, 
327.00, 
328.00, 
329.00, 
330.00, 
331.00, 
332.00, 
333.00, 
334.00, 
335.00, 
336.00, 
337.00, 
338.00, 
339.00, 
340.00, 
341.00, 
342.00, 
343.00, 
344.00, 
345.00, 
346.00, 
347.00, 
348.00, 
349.00, 
350.00, 
351.00, 
352.00, 
353.00, 
354.00, 
355.00, 
356.00, 
357.00, 
358.00, 
359.00, 
360.00, 
361.00, 
362.00, 
363.00, 
364.00, 
365.00, 
366.00, 
367.00, 
368.00, 
369.00, 
370.00, 
371.00, 
372.00, 
373.00, 
374.00, 
375.00, 
376.00, 
377.00, 
378.00, 
379.00, 
380.00, 
381.00, 
382.00, 
383.00, 
384.00, 
385.00, 
386.00, 
387.00, 
388.00, 
389.00, 
390.00, 
391.00, 
392.00, 
393.00, 
394.00, 
395.00, 
396.00, 
397.00, 
398.00, 
399.00, 
400.00, 
401.00, 
402.00, 
403.00, 
404.00, 
405.00, 
406.00, 
407.00, 
408.00, 
409.00, 
410.00, 
411.00, 
412.00, 
413.00, 
414.00, 
415.00, 
416.00, 
417.00, 
418.00, 
419.00, 
420.00, 
421.00, 
422.00, 
423.00, 
424.00, 
425.00, 
426.00, 
427.00, 
428.00, 
429.00, 
430.00, 
431.00, 
432.00, 
433.00, 
434.00, 
435.00, 
436.00, 
437.00, 
438.00, 
439.00, 
440.00, 
441.00, 
442.00, 
443.00, 
444.00, 
445.00, 
446.00, 
447.00, 
448.00, 
449.00, 
450.00, 
451.00, 
452.00, 
453.00, 
454.00, 
455.00, 
456.00, 
457.00, 
458.00, 
459.00, 
460.00, 
461.00, 
462.00, 
463.00, 
464.00, 
465.00, 
466.00, 
467.00, 
468.00, 
469.00, 
470.00, 
471.00, 
472.00, 
473.00, 
474.00, 
475.00, 
476.00, 
477.00, 
478.00, 
479.00, 
480.00, 
481.00, 
482.00, 
483.00, 
484.00, 
485.00, 
486.00, 
487.00, 
488.00, 
489.00, 
490.00, 
491.00, 
492.00, 
493.00, 
494.00, 
495.00, 
496.00, 
497.00, 
498.00, 
499.00, 
500.00, 
501.00, 
502.00, 
503.00, 
504.00, 
505.00, 
506.00, 
507.00, 
508.00, 
509.00, 
510.00, 
511.00, 
512.00, 
513.00, 
514.00, 
515.00, 
516.00, 
517.00, 
518.00, 
519.00, 
520.00, 
521.00, 
522.00, 
523.00, 
524.00, 
525.00, 
526.00, 
527.00, 
528.00, 
529.00, 
530.00, 
531.00, 
532.00, 
533.00, 
534.00, 
535.00, 
536.00, 
537.00, 
538.00, 
539.00, 
540.00, 
541.00, 
542.00, 
543.00, 
544.00, 
545.00, 
546.00, 
547.00, 
548.00, 
549.00, 
550.00, 
551.00, 
552.00, 
553.00, 
554.00, 
555.00, 
556.00, 
557.00, 
558.00, 
559.00, 
560.00, 
561.00, 
562.00, 
563.00, 
564.00, 
565.00, 
566.00, 
567.00, 
568.00, 
569.00, 
570.00, 
571.00, 
572.00, 
573.00, 
574.00, 
575.00, 
576.00, 
577.00, 
578.00, 
579.00, 
580.00, 
581.00, 
582.00, 
583.00, 
584.00, 
585.00, 
586.00, 
587.00, 
588.00, 
589.00, 
590.00, 
591.00, 
592.00, 
593.00, 
594.00, 
595.00, 
596.00, 
597.00, 
598.00, 
599.00, 
600.00, 
601.00, 
602.00, 
603.00, 
604.00, 
605.00, 
606.00, 
607.00, 
608.00, 
609.00, 
610.00, 
611.00, 
612.00, 
613.00, 
614.00, 
615.00, 
616.00, 
617.00, 
618.00, 
619.00, 
620.00, 
621.00, 
622.00, 
623.00, 
624.00, 
625.00, 
626.00, 
627.00, 
628.00, 
629.00, 
630.00, 
631.00, 
632.00, 
633.00, 
634.00, 
635.00, 
636.00, 
637.00, 
638.00, 
639.00, 
640.00, 
641.00, 
642.00, 
643.00, 
644.00, 
645.00, 
646.00, 
647.00, 
648.00, 
649.00, 
650.00, 
651.00, 
652.00, 
653.00, 
654.00, 
655.00, 
656.00, 
657.00, 
658.00, 
659.00, 
660.00, 
661.00, 
662.00, 
663.00, 
664.00, 
665.00, 
666.00, 
667.00, 
668.00, 
669.00, 
670.00, 
671.00, 
672.00, 
673.00, 
674.00, 
675.00, 
676.00, 
677.00, 
678.00, 
679.00, 
680.00, 
681.00, 
682.00, 
683.00, 
684.00, 
685.00, 
686.00, 
687.00, 
688.00, 
689.00, 
690.00, 
691.00, 
692.00, 
693.00, 
694.00, 
695.00, 
696.00, 
697.00, 
698.00, 
699.00, 
700.00, 
701.00, 
702.00, 
703.00, 
704.00, 
705.00, 
706.00, 
707.00, 
708.00, 
709.00, 
710.00, 
711.00, 
712.00, 
713.00, 
714.00, 
715.00, 
716.00, 
717.00, 
718.00, 
719.00, 
720.00, 
721.00, 
722.00, 
723.00, 
724.00, 
725.00, 
726.00, 
727.00, 
728.00, 
729.00, 
730.00, 
731.00, 
732.00, 
733.00, 
734.00, 
735.00, 
736.00, 
737.00, 
738.00, 
739.00, 
740.00, 
741.00, 
742.00, 
743.00, 
744.00, 
745.00, 
746.00, 
747.00, 
748.00, 
749.00, 
750.00, 
751.00, 
752.00, 
753.00, 
754.00, 
755.00, 
756.00, 
757.00, 
758.00, 
759.00, 
760.00, 
761.00, 
762.00, 
763.00, 
764.00, 
765.00, 
766.00, 
767.00, 
768.00, 
769.00, 
770.00, 
771.00, 
772.00, 
773.00, 
774.00, 
775.00, 
776.00, 
777.00, 
778.00, 
779.00, 
780.00, 
781.00, 
782.00, 
783.00, 
784.00, 
785.00, 
786.00, 
787.00, 
788.00, 
789.00, 
790.00, 
791.00, 
792.00, 
793.00, 
794.00, 
795.00, 
796.00, 
797.00, 
798.00, 
799.00, 
800.00, 
801.00, 
802.00, 
803.00, 
804.00, 
805.00, 
806.00, 
807.00, 
808.00, 
809.00, 
810.00, 
811.00, 
812.00, 
813.00, 
814.00, 
815.00, 
816.00, 
817.00, 
818.00, 
819.00, 
820.00, 
821.00, 
822.00, 
823.00, 
824.00, 
825.00, 
826.00, 
827.00, 
828.00, 
829.00, 
830.00, 
831.00, 
832.00, 
833.00, 
834.00, 
835.00, 
836.00, 
837.00, 
838.00, 
839.00, 
840.00, 
841.00, 
842.00, 
843.00, 
844.00, 
845.00, 
846.00, 
847.00, 
848.00, 
849.00, 
850.00, 
851.00, 
852.00, 
853.00, 
854.00, 
855.00, 
856.00, 
857.00, 
858.00, 
859.00, 
860.00, 
861.00, 
862.00, 
863.00, 
864.00, 
865.00, 
866.00, 
867.00, 
868.00, 
869.00, 
870.00, 
871.00, 
872.00, 
873.00, 
874.00, 
875.00, 
876.00, 
877.00, 
878.00, 
879.00, 
880.00, 
881.00, 
882.00, 
883.00, 
884.00, 
885.00, 
886.00, 
887.00, 
888.00, 
889.00, 
890.00, 
891.00, 
892.00, 
893.00, 
894.00, 
895.00, 
896.00, 
897.00, 
898.00, 
899.00, 
900.00, 
901.00, 
902.00, 
903.00, 
904.00, 
905.00, 
906.00, 
907.00, 
908.00, 
909.00, 
910.00, 
911.00, 
912.00, 
913.00, 
914.00, 
915.00, 
916.00, 
917.00, 
918.00, 
919.00, 
920.00, 
921.00, 
922.00, 
923.00, 
924.00, 
925.00, 
926.00, 
927.00, 
928.00, 
929.00, 
930.00, 
931.00, 
932.00, 
933.00, 
934.00, 
935.00, 
936.00, 
937.00, 
938.00, 
939.00, 
940.00, 
941.00, 
942.00, 
943.00, 
944.00, 
945.00, 
946.00, 
947.00, 
948.00, 
949.00, 
950.00, 
951.00, 
952.00, 
953.00, 
954.00, 
955.00, 
956.00, 
957.00, 
958.00, 
959.00, 
960.00, 
961.00, 
962.00, 
963.00, 
964.00, 
965.00, 
966.00, 
967.00, 
968.00, 
969.00, 
970.00, 
971.00, 
972.00, 
973.00, 
974.00, 
975.00, 
976.00, 
977.00, 
978.00, 
979.00, 
980.00, 
981.00, 
982.00, 
983.00, 
984.00, 
985.00, 
986.00, 
987.00, 
988.00, 
989.00, 
990.00, 
991.00, 
992.00, 
993.00, 
994.00, 
995.00, 
996.00, 
997.00, 
998.00, 
999.00, 
1000.00,0.0425
1001.00, 
1002.00,0.0419
1003.00, 
1004.00,0.0411
1005.00, 
1006.00,0.0406
1007.00, 
1008.00,0.0399
1009.00, 
1010.00,0.0393
1011.00, 
1012.00,0.0386
1013.00, 
1014.00,0.0380
1015.00, 
1016.00,0.0374
1017.00, 
1018.00,0.0367
1019.00, 
1020.00,0.0362
1021.00, 
1022.00,0.0356
1023.00, 
1024.00,0.0349
1025.00, 
1026.00,0.0343
1027.00, 
1028.00,0.0338
1029.00, 
1030.00,0.0333
1031.00, 
1032.00,0.0326
1033.00, 
1034.00,0.0319
1035.00, 
1036.00,0.0312
1037.00, 
1038.00,0.0309
1039.00, 
1040.00,0.0305
1041.00, 
1042.00,0.0302
1043.00, 
1044.00,0.0296
1045.00, 
1046.00,0.0290
1047.00, 
1048.00,0.0284
1049.00, 
1050.00,0.0279
1051.00, 
1052.00,0.0275
1053.00, 
1054.00,0.0270
1055.00, 
1056.00,0.0265
1057.00, 
1058.00,0.0260
1059.00, 
1060.00,0.0257
1061.00, 
1062.00,0.0253
1063.00, 
1064.00,0.0249
1065.00, 
1066.00,0.0246
1067.00, 
1068.00,0.0242
1069.00, 
1070.00,0.0238
1071.00, 
1072.00,0.0237
1073.00, 
1074.00,0.0237
1075.00, 
1076.00,0.0233
1077.00, 
1078.00,0.0228
1079.00, 
1080.00,0.0221
1081.00, 
1082.00,0.0220
1083.00, 
1084.00,0.0217
1085.00, 
1086.00,0.0216
1087.00, 
1088.00,0.0212
1089.00, 
1090.00,0.0210
1091.00, 
1092.00,0.0207
1093.00, 
1094.00,0.0205
1095.00, 
1096.00,0.0202
1097.00, 
1098.00,0.0201
1099.00, 
1100.00,0.0199
1101.00, 
1102.00,0.0198
1103.00, 
1104.00,0.0196
1105.00, 
1106.00,0.0195
1107.00, 
1108.00,0.0192
1109.00, 
1110.00,0.0191
1111.00, 
1112.00,0.0189
1113.00, 
1114.00,0.0187
1115.00, 
1116.00,0.0185
1117.00, 
1118.00,0.0185
1119.00, 
1120.00,0.0184
1121.00, 
1122.00,0.0184
1123.00, 
1124.00,0.0181
1125.00, 
1126.00,0.0179
1127.00, 
1128.00,0.0177
1129.00, 
1130.00,0.0176
1131.00, 
1132.00,0.0175
1133.00, 
1134.00,0.0176
1135.00, 
1136.00,0.0174
1137.00, 
1138.00,0.0173
1139.00, 
1140.00,0.0170
1141.00, 
1142.00,0.0170
1143.00, 
1144.00,0.0169
1145.00, 
1146.00,0.0169
1147.00, 
1148.00,0.0168
1149.00, 
1150.00,0.0169
1151.00, 
1152.00,0.0168
1153.00, 
1154.00,0.0169
1155.00, 
1156.00,0.0168
1157.00, 
1158.00,0.0167
1159.00, 
1160.00,0.0166
1161.00, 
1162.00,0.0166
1163.00, 
1164.00,0.0167
1165.00, 
1166.00,0.0167
1167.00, 
1168.00,0.0166
1169.00, 
1170.00,0.0165
1171.00, 
1172.00,0.0164
1173.00, 
1174.00,0.0164
1175.00, 
1176.00,0.0164
1177.00, 
1178.00,0.0165
1179.00, 
1180.00,0.0165
1181.00, 
1182.00,0.0165
1183.00, 
1184.00,0.0164
1185.00, 
1186.00,0.0163
1187.00, 
1188.00,0.0164
1189.00, 
1190.00,0.0165
1191.00, 
1192.00,0.0165
1193.00, 
1194.00,0.0165
1195.00, 
1196.00,0.0165
1197.00, 
1198.00,0.0166
1199.00, 
1200.00,0.0166
1201.00, 
1202.00,0.0166
1203.00, 
1204.00,0.0167
1205.00, 
1206.00,0.0167
1207.00, 
1208.00,0.0167
1209.00, 
1210.00,0.0167
1211.00, 
1212.00,0.0167
1213.00, 
1214.00,0.0168
1215.00, 
1216.00,0.0169
1217.00, 
1218.00,0.0169
1219.00, 
1220.00,0.0169
1221.00, 
1222.00,0.0169
1223.00, 
1224.00,0.0171
1225.00, 
1226.00,0.0173
1227.00, 
1228.00,0.0173
1229.00, 
1230.00,0.0172
1231.00, 
1232.00,0.0172
1233.00, 
1234.00,0.0174
1235.00, 
1236.00,0.0175
1237.00, 
1238.00,0.0176
1239.00, 
1240.00,0.0175
1241.00, 
1242.00,0.0176
1243.00, 
1244.00,0.0177
1245.00, 
1246.00,0.0178
1247.00, 
1248.00,0.0178
1249.00, 
1250.00,0.0179
1251.00, 
1252.00,0.0179
1253.00, 
1254.00,0.0181
1255.00, 
1256.00,0.0181
1257.00, 
1258.00,0.0181
1259.00, 
1260.00,0.0182
1261.00, 
1262.00,0.0182
1263.00, 
1264.00,0.0184
1265.00, 
1266.00,0.0185
1267.00, 
1268.00,0.0186
1269.00, 
1270.00,0.0187
1271.00, 
1272.00,0.0188
1273.00, 
1274.00,0.0188
1275.00, 
1276.00,0.0188
1277.00, 
1278.00,0.0189
1279.00, 
1280.00,0.0190
1281.00, 
1282.00,0.0190
1283.00, 
1284.00,0.0190
1285.00, 
1286.00,0.0192
1287.00, 
1288.00,0.0194
1289.00, 
1290.00,0.0196
1291.00, 
1292.00,0.0198
1293.00, 
1294.00,0.0199
1295.00, 
1296.00,0.0201
1297.00, 
1298.00,0.0202
1299.00, 
1300.00,0.0203
1301.00, 
1302.00,0.0203
1303.00, 
1304.00,0.0205
1305.00, 
1306.00,0.0205
1307.00, 
1308.00,0.0206
1309.00, 
1310.00,0.0203
1311.00, 
1312.00,0.0203
1313.00, 
1314.00,0.0203
1315.00, 
1316.00,0.0207
1317.00, 
1318.00,0.0209
1319.00, 
1320.00,0.0214
1321.00, 
1322.00,0.0216
1323.00, 
1324.00,0.0219
1325.00, 
1326.00,0.0220
1327.00, 
1328.00,0.0222
1329.00, 
1330.00,0.0223
1331.00, 
1332.00,0.0226
1333.00, 
1334.00,0.0227
1335.00, 
1336.00,0.0230
1337.00, 
1338.00,0.0232
1339.00, 
1340.00,0.0234
1341.00, 
1342.00,0.0235
1343.00, 
1344.00,0.0237
1345.00, 
1346.00,0.0240
1347.00, 
1348.00,0.0239
1349.00, 
1350.00,0.0239
1351.00, 
1352.00,0.0238
1353.00, 
1354.00,0.0243
1355.00, 
1356.00,0.0246
1357.00, 
1358.00,0.0247
1359.00, 
1360.00,0.0249
1361.00, 
1362.00,0.0250
1363.00, 
1364.00,0.0254
1365.00, 
1366.00,0.0255
1367.00, 
1368.00,0.0257
1369.00, 
1370.00,0.0258
1371.00, 
1372.00,0.0261
1373.00, 
1374.00,0.0264
1375.00, 
1376.00,0.0269
1377.00, 
1378.00,0.0268
1379.00, 
1380.00,0.0269
1381.00, 
1382.00,0.0267
1383.00, 
1384.00,0.0270
1385.00, 
1386.00,0.0272
1387.00, 
1388.00,0.0275
1389.00, 
1390.00,0.0278
1391.00, 
1392.00,0.0280
1393.00, 
1394.00,0.0280
1395.00, 
1396.00,0.0281
1397.00, 
1398.00,0.0282
1399.00, 
1400.00,0.0284
1401.00, 
1402.00,0.0285
1403.00, 
1404.00,0.0286
1405.00, 
1406.00,0.0287
1407.00, 
1408.00,0.0289
1409.00, 
1410.00,0.0291
1411.00, 
1412.00,0.0295
1413.00, 
1414.00,0.0297
1415.00, 
1416.00,0.0299
1417.00, 
1418.00,0.0302
1419.00, 
1420.00,0.0305
1421.00, 
1422.00,0.0306
1423.00, 
1424.00,0.0308
1425.00, 
1426.00,0.0310
1427.00, 
1428.00,0.0313
1429.00, 
1430.00,0.0316
1431.00, 
1432.00,0.0318
1433.00, 
1434.00,0.0320
1435.00, 
1436.00,0.0321
1437.00, 
1438.00,0.0325
1439.00, 
1440.00,0.0326
1441.00, 
1442.00,0.0329
1443.00, 
1444.00,0.0330
1445.00, 
1446.00,0.0333
1447.00, 
1448.00,0.0335
1449.00, 
1450.00,0.0339
1451.00, 
1452.00,0.0341
1453.00, 
1454.00,0.0344
1455.00, 
1456.00,0.0346
1457.00, 
1458.00,0.0348
1459.00, 
1460.00,0.0349
1461.00, 
1462.00,0.0352
1463.00, 
1464.00,0.0355
1465.00, 
1466.00,0.0359
1467.00, 
1468.00,0.0362
1469.00, 
1470.00,0.0367
1471.00, 
1472.00,0.0366
1473.00, 
1474.00,0.0367
1475.00, 
1476.00,0.0367
1477.00, 
1478.00,0.0371
1479.00, 
1480.00,0.0375
1481.00, 
1482.00,0.0377
1483.00, 
1484.00,0.0380
1485.00, 
1486.00,0.0383
1487.00, 
1488.00,0.0386
1489.00, 
1490.00,0.0389
1491.00, 
1492.00,0.0391
1493.00, 
1494.00,0.0393
1495.00, 
1496.00,0.0396
1497.00, 
1498.00,0.0398
1499.00, 
1500.00,0.0400
1501.00, 
1502.00,0.0401
1503.00, 
1504.00,0.0403
1505.00, 
1506.00,0.0406
1507.00, 
1508.00,0.0409
1509.00, 
1510.00,0.0413
1511.00, 
1512.00,0.0416
1513.00, 
1514.00,0.0419
1515.00, 
1516.00,0.0422
1517.00, 
1518.00,0.0425
1519.00, 
1520.00,0.0429
1521.00, 
1522.00,0.0431
1523.00, 
1524.00,0.0433
1525.00, 
1526.00,0.0436
1527.00, 
1528.00,0.0440
1529.00, 
1530.00,0.0445
1531.00, 
1532.00,0.0447
1533.00, 
1534.00,0.0447
1535.00, 
1536.00,0.0448
1537.00, 
1538.00,0.0451
1539.00, 
1540.00,0.0455
1541.00, 
1542.00,0.0459
1543.00, 
1544.00,0.0462
1545.00, 
1546.00,0.0466
1547.00, 
1548.00,0.0469
1549.00, 
1550.00,0.0472
1551.00, 
1552.00,0.0475
1553.00, 
1554.00,0.0478
1555.00, 
1556.00,0.0481
1557.00, 
1558.00,0.0484
1559.00, 
1560.00,0.0490
1561.00, 
1562.00,0.0494
1563.00, 
1564.00,0.0497
1565.00, 
1566.00,0.0496
1567.00, 
1568.00,0.0499
1569.00, 
1570.00,0.0501
1571.00, 
1572.00,0.0506
1573.00, 
1574.00,0.0511
1575.00, 
1576.00,0.0515
1577.00, 
1578.00,0.0517
1579.00, 
1580.00,0.0517
1581.00, 
1582.00,0.0519
1583.00, 
1584.00,0.0522
1585.00, 
1586.00,0.0527
1587.00, 
1588.00,0.0531
1589.00, 
1590.00,0.0535
1591.00, 
1592.00,0.0539
1593.00, 
1594.00,0.0541
1595.00, 
1596.00,0.0547
1597.00, 
1598.00,0.0549
1599.00, 
1600.00,0.0553
1601.00, 
1602.00,0.0555
1603.00, 
1604.00,0.0560
1605.00, 
1606.00,0.0562
1607.00, 
1608.00,0.0567
1609.00, 
1610.00,0.0570
1611.00, 
1612.00,0.0574
1613.00, 
1614.00,0.0577
1615.00, 
1616.00,0.0580
1617.00, 
1618.00,0.0583
1619.00, 
1620.00,0.0585
1621.00, 
1622.00,0.0589
1623.00, 
1624.00,0.0594
1625.00, 
1626.00,0.0598
1627.00, 
1628.00,0.0600
1629.00, 
1630.00,0.0601
1631.00, 
1632.00,0.0604
1633.00, 
1634.00,0.0606
1635.00, 
1636.00,0.0609
1637.00, 
1638.00,0.0612
1639.00, 
1640.00,0.0617
1641.00, 
1642.00,0.0620
1643.00, 
1644.00,0.0624
1645.00, 
1646.00,0.0627
1647.00, 
1648.00,0.0629
1649.00, 
1650.00,0.0633
1651.00, 
1652.00,0.0637
1653.00, 
1654.00,0.0641
1655.00, 
1656.00,0.0645
1657.00, 
1658.00,0.0648
1659.00, 
1660.00,0.0651
1661.00, 
1662.00,0.0653
1663.00, 
1664.00,0.0655
1665.00, 
1666.00,0.0658
1667.00, 
1668.00,0.0661
1669.00, 
1670.00,0.0665
1671.00, 
1672.00,0.0668
1673.00, 
1674.00,0.0672
1675.00, 
1676.00,0.0674
1677.00, 
1678.00,0.0677
1679.00, 
1680.00,0.0680
1681.00, 
1682.00,0.0681
1683.00, 
1684.00,0.0683
1685.00, 
1686.00,0.0685
1687.00, 
1688.00,0.0688
1689.00, 
1690.00,0.0693
1691.00, 
1692.00,0.0696
1693.00, 
1694.00,0.0700
1695.00, 
1696.00,0.0702
1697.00, 
1698.00,0.0704
1699.00, 
1700.00,0.0706
1701.00, 
1702.00,0.0708
1703.00, 
1704.00,0.0710
1705.00, 
1706.00,0.0713
1707.00, 
1708.00,0.0715
1709.00, 
1710.00,0.0720
1711.00, 
1712.00,0.0723
1713.00, 
1714.00,0.0726
1715.00, 
1716.00,0.0728
1717.00, 
1718.00,0.0729
1719.00, 
1720.00,0.0731
1721.00, 
1722.00,0.0733
1723.00, 
1724.00,0.0737
1725.00, 
1726.00,0.0740
1727.00, 
1728.00,0.0742
1729.00, 
1730.00,0.0745
1731.00, 
1732.00,0.0749
1733.00, 
1734.00,0.0752
1735.00, 
1736.00,0.0754
1737.00, 
1738.00,0.0755
1739.00, 
1740.00,0.0757
1741.00, 
1742.00,0.0760
1743.00, 
1744.00,0.0764
1745.00, 
1746.00,0.0767
1747.00, 
1748.00,0.0770
1749.00, 
1750.00,0.0772
1751.00, 
1752.00,0.0774
1753.00, 
1754.00,0.0777
1755.00, 
1756.00,0.0779
1757.00, 
1758.00,0.0781
1759.00, 
1760.00,0.0784
1761.00, 
1762.00,0.0786
1763.00, 
1764.00,0.0789
1765.00, 
1766.00,0.0792
1767.00, 
1768.00,0.0795
1769.00, 
1770.00,0.0798
1771.00, 
1772.00,0.0800
1773.00, 
1774.00,0.0802
1775.00, 
1776.00,0.0804
1777.00, 
1778.00,0.0807
1779.00, 
1780.00,0.0810
1781.00, 
1782.00,0.0813
1783.00, 
1784.00,0.0815
1785.00, 
1786.00,0.0818
1787.00, 
1788.00,0.0821
1789.00, 
1790.00,0.0823
1791.00, 
1792.00,0.0826
1793.00, 
1794.00,0.0827
1795.00, 
1796.00,0.0829
1797.00, 
1798.00,0.0830
1799.00, 
1800.00,0.0832
1801.00, 
1802.00,0.0834
1803.00, 
1804.00,0.0839
1805.00, 
1806.00,0.0844
1807.00, 
1808.00,0.0848
1809.00, 
1810.00,0.0851
1811.00, 
1812.00,0.0852
1813.00, 
1814.00,0.0854
1815.00, 
1816.00,0.0854
1817.00, 
1818.00,0.0856
1819.00, 
1820.00,0.0860
1821.00, 
1822.00,0.0865
1823.00, 
1824.00,0.0871
1825.00, 
1826.00,0.0874
1827.00, 
1828.00,0.0875
1829.00, 
1830.00,0.0875
1831.00, 
1832.00,0.0875
1833.00, 
1834.00,0.0877
1835.00, 
1836.00,0.0880
1837.00, 
1838.00,0.0884
1839.00, 
1840.00,0.0889
1841.00, 
1842.00,0.0891
1843.00, 
1844.00,0.0896
1845.00, 
1846.00,0.0900
1847.00, 
1848.00,0.0905
1849.00, 
1850.00,0.0908
1851.00, 
1852.00,0.0909
1853.00, 
1854.00,0.0910
1855.00, 
1856.00,0.0909
1857.00, 
1858.00,0.0907
1859.00, 
1860.00,0.0907
1861.00, 
1862.00,0.0907
1863.00, 
1864.00,0.0908
1865.00, 
1866.00,0.0907
1867.00, 
1868.00,0.0908
1869.00, 
1870.00,0.0911
1871.00, 
1872.00,0.0915
1873.00, 
1874.00,0.0919
1875.00, 
1876.00,0.0920
1877.00, 
1878.00,0.0920
1879.00, 
1880.00,0.0921
1881.00, 
1882.00,0.0922
1883.00, 
1884.00,0.0924
1885.00, 
1886.00,0.0926
1887.00, 
1888.00,0.0927
1889.00, 
1890.00,0.0930
1891.00, 
1892.00,0.0933
1893.00, 
1894.00,0.0936
1895.00, 
1896.00,0.0937
1897.00, 
1898.00,0.0941
1899.00, 
1900.00,0.0945
1901.00, 
1902.00,0.0950
1903.00, 
1904.00,0.0953
1905.00, 
1906.00,0.0954
1907.00, 
1908.00,0.0953
1909.00, 
1910.00,0.0952
1911.00, 
1912.00,0.0952
1913.00, 
1914.00,0.0951
1915.00, 
1916.00,0.0950
1917.00, 
1918.00,0.0948
1919.00, 
1920.00,0.0949
1921.00, 
1922.00,0.0950
1923.00, 
1924.00,0.0953
1925.00, 
1926.00,0.0955
1927.00, 
1928.00,0.0958
1929.00, 
1930.00,0.0962
1931.00, 
1932.00,0.0967
1933.00, 
1934.00,0.0969
1935.00, 
1936.00,0.0970
1937.00, 
1938.00,0.0969
1939.00, 
1940.00,0.0969
1941.00, 
1942.00,0.0967
1943.00, 
1944.00,0.0968
1945.00, 
1946.00,0.0968
1947.00, 
1948.00,0.0971
1949.00, 
1950.00,0.0973
1951.00, 
1952.00,0.0975
1953.00, 
1954.00,0.0974
1955.00, 
1956.00,0.0974
