"20-30mM-1_Xylene0mM - RawData"
"Wavelength nm."	"Abs."
300.00	0.0391
301.00	0.0390
302.00	0.0387
303.00	0.0384
304.00	0.0381
305.00	0.0378
306.00	0.0375
307.00	0.0374
308.00	0.0376
309.00	0.0376
310.00	0.0374
311.00	0.0368
312.00	0.0369
313.00	0.0365
314.00	0.0362
315.00	0.0364
316.00	0.0369
317.00	0.0366
318.00	0.0365
319.00	0.0365
320.00	0.0364
321.00	0.0363
322.00	0.0362
323.00	0.0362
324.00	0.0364
325.00	0.0364
326.00	0.0366
327.00	0.0368
328.00	0.0371
329.00	0.0370
330.00	0.0369
331.00	0.0364
332.00	0.0357
333.00	0.0357
334.00	0.0360
335.00	0.0372
336.00	0.0392
337.00	0.0404
338.00	0.0407
339.00	0.0410
340.00	0.0410
341.00	0.0403
342.00	0.0406
343.00	0.0410
344.00	0.0410
345.00	0.0410
346.00	0.0411
347.00	0.0414
348.00	0.0417
349.00	0.0421
350.00	0.0426
351.00	0.0430
352.00	0.0435
353.00	0.0441
354.00	0.0446
355.00	0.0450
356.00	0.0455
357.00	0.0462
358.00	0.0469
359.00	0.0473
360.00	0.0476
361.00	0.0477
362.00	0.0473
363.00	0.0480
364.00	0.0493
365.00	0.0512
366.00	0.0521
367.00	0.0534
368.00	0.0535
369.00	0.0534
370.00	0.0528
371.00	0.0532
372.00	0.0537
373.00	0.0544
374.00	0.0550
375.00	0.0556
376.00	0.0562
377.00	0.0567
378.00	0.0572
379.00	0.0576
380.00	0.0582
381.00	0.0588
382.00	0.0591
383.00	0.0598
384.00	0.0605
385.00	0.0611
386.00	0.0621
387.00	0.0633
388.00	0.0642
389.00	0.0651
390.00	0.0661
391.00	0.0669
392.00	0.0678
393.00	0.0684
394.00	0.0690
395.00	0.0697
396.00	0.0703
397.00	0.0708
398.00	0.0716
399.00	0.0725
400.00	0.0731
401.00	0.0740
402.00	0.0749
403.00	0.0760
404.00	0.0769
405.00	0.0779
406.00	0.0789
407.00	0.0799
408.00	0.0807
409.00	0.0816
410.00	0.0824
411.00	0.0835
412.00	0.0844
413.00	0.0853
414.00	0.0865
415.00	0.0877
416.00	0.0890
417.00	0.0902
418.00	0.0915
419.00	0.0926
420.00	0.0936
421.00	0.0945
422.00	0.0957
423.00	0.0968
424.00	0.0979
425.00	0.0989
426.00	0.0998
427.00	0.1007
428.00	0.1018
429.00	0.1029
430.00	0.1041
431.00	0.1055
432.00	0.1069
433.00	0.1083
434.00	0.1098
435.00	0.1113
436.00	0.1128
437.00	0.1143
438.00	0.1159
439.00	0.1175
440.00	0.1191
441.00	0.1203
442.00	0.1217
443.00	0.1233
444.00	0.1250
445.00	0.1266
446.00	0.1285
447.00	0.1304
448.00	0.1321
449.00	0.1336
450.00	0.1354
451.00	0.1373
452.00	0.1390
453.00	0.1408
454.00	0.1427
455.00	0.1446
456.00	0.1465
457.00	0.1484
458.00	0.1504
459.00	0.1524
460.00	0.1543
461.00	0.1564
462.00	0.1586
463.00	0.1606
464.00	0.1628
465.00	0.1648
466.00	0.1669
467.00	0.1688
468.00	0.1710
469.00	0.1730
470.00	0.1751
471.00	0.1772
472.00	0.1794
473.00	0.1816
474.00	0.1838
475.00	0.1860
476.00	0.1882
477.00	0.1904
478.00	0.1925
479.00	0.1946
480.00	0.1968
481.00	0.1989
482.00	0.2010
483.00	0.2029
484.00	0.2049
485.00	0.2071
486.00	0.2091
487.00	0.2110
488.00	0.2128
489.00	0.2146
490.00	0.2165
491.00	0.2182
492.00	0.2201
493.00	0.2223
494.00	0.2243
495.00	0.2262
496.00	0.2282
497.00	0.2300
498.00	0.2318
499.00	0.2336
500.00	0.2353
501.00	0.2370
502.00	0.2387
503.00	0.2404
504.00	0.2422
505.00	0.2441
506.00	0.2458
507.00	0.2476
508.00	0.2493
509.00	0.2510
510.00	0.2525
511.00	0.2540
512.00	0.2555
513.00	0.2568
514.00	0.2580
515.00	0.2591
516.00	0.2601
517.00	0.2610
518.00	0.2617
519.00	0.2623
520.00	0.2631
521.00	0.2638
522.00	0.2646
523.00	0.2653
524.00	0.2656
525.00	0.2656
526.00	0.2656
527.00	0.2654
528.00	0.2654
529.00	0.2655
530.00	0.2658
531.00	0.2664
532.00	0.2662
533.00	0.2661
534.00	0.2659
535.00	0.2658
536.00	0.2651
537.00	0.2653
538.00	0.2653
539.00	0.2656
540.00	0.2658
541.00	0.2661
542.00	0.2664
543.00	0.2666
544.00	0.2668
545.00	0.2670
546.00	0.2671
547.00	0.2673
548.00	0.2675
549.00	0.2675
550.00	0.2676
551.00	0.2676
552.00	0.2674
553.00	0.2672
554.00	0.2668
555.00	0.2661
556.00	0.2654
557.00	0.2645
558.00	0.2633
559.00	0.2621
560.00	0.2606
561.00	0.2590
562.00	0.2576
563.00	0.2560
564.00	0.2541
565.00	0.2523
566.00	0.2501
567.00	0.2477
568.00	0.2452
569.00	0.2426
570.00	0.2400
571.00	0.2373
572.00	0.2348
573.00	0.2323
574.00	0.2298
575.00	0.2272
576.00	0.2246
577.00	0.2220
578.00	0.2194
579.00	0.2170
580.00	0.2147
581.00	0.2126
582.00	0.2105
583.00	0.2086
584.00	0.2067
585.00	0.2050
586.00	0.2034
587.00	0.2019
588.00	0.2005
589.00	0.1991
590.00	0.1979
591.00	0.1967
592.00	0.1957
593.00	0.1948
594.00	0.1940
595.00	0.1932
596.00	0.1923
597.00	0.1916
598.00	0.1909
599.00	0.1902
600.00	0.1893
601.00	0.1885
602.00	0.1876
603.00	0.1866
604.00	0.1853
605.00	0.1840
606.00	0.1825
607.00	0.1808
608.00	0.1787
609.00	0.1765
610.00	0.1742
611.00	0.1718
612.00	0.1692
613.00	0.1662
614.00	0.1629
615.00	0.1595
616.00	0.1559
617.00	0.1526
618.00	0.1491
619.00	0.1456
620.00	0.1419
621.00	0.1380
622.00	0.1339
623.00	0.1301
624.00	0.1263
625.00	0.1223
626.00	0.1182
627.00	0.1143
628.00	0.1102
629.00	0.1064
630.00	0.1027
631.00	0.0993
632.00	0.0955
633.00	0.0918
634.00	0.0881
635.00	0.0847
636.00	0.0815
637.00	0.0785
638.00	0.0757
639.00	0.0731
640.00	0.0705
641.00	0.0679
642.00	0.0657
643.00	0.0637
644.00	0.0618
645.00	0.0598
646.00	0.0579
647.00	0.0563
648.00	0.0547
649.00	0.0534
650.00	0.0520
651.00	0.0507
652.00	0.0493
653.00	0.0479
654.00	0.0463
655.00	0.0449
656.00	0.0434
657.00	0.0426
658.00	0.0416
659.00	0.0410
660.00	0.0405
661.00	0.0402
662.00	0.0396
663.00	0.0393
664.00	0.0385
665.00	0.0380
666.00	0.0379
667.00	0.0374
668.00	0.0368
669.00	0.0363
670.00	0.0366
671.00	0.0360
672.00	0.0359
673.00	0.0357
674.00	0.0354
675.00	0.0341
676.00	0.0336
677.00	0.0328
678.00	0.0321
679.00	0.0317
680.00	0.0315
681.00	0.0312
682.00	0.0312
683.00	0.0310
684.00	0.0308
685.00	0.0305
686.00	0.0300
687.00	0.0295
688.00	0.0292
689.00	0.0290
690.00	0.0285
691.00	0.0286
692.00	0.0285
693.00	0.0283
694.00	0.0281
695.00	0.0283
696.00	0.0278
697.00	0.0275
698.00	0.0270
699.00	0.0268
700.00	0.0266
701.00	0.0265
702.00	0.0265
703.00	0.0273
704.00	0.0270
705.00	0.0267
706.00	0.0265
707.00	0.0262
708.00	0.0259
709.00	0.0261
710.00	0.0259
711.00	0.0261
712.00	0.0260
713.00	0.0254
714.00	0.0249
715.00	0.0251
716.00	0.0250
717.00	0.0248
718.00	0.0244
719.00	0.0242
720.00	0.0243
721.00	0.0241
722.00	0.0241
723.00	0.0242
724.00	0.0235
725.00	0.0235
726.00	0.0226
727.00	0.0223
728.00	0.0222
729.00	0.0227
730.00	0.0224
731.00	0.0228
732.00	0.0226
733.00	0.0226
734.00	0.0223
735.00	0.0220
736.00	0.0217
737.00	0.0217
738.00	0.0218
739.00	0.0218
740.00	0.0218
741.00	0.0218
742.00	0.0218
743.00	0.0215
744.00	0.0212
745.00	0.0212
746.00	0.0212
747.00	0.0208
748.00	0.0212
749.00	0.0211
750.00	0.0212
751.00	0.0215
752.00	0.0215
753.00	0.0210
754.00	0.0211
755.00	0.0209
756.00	0.0204
757.00	0.0205
758.00	0.0206
759.00	0.0206
760.00	0.0205
761.00	0.0202
762.00	0.0203
763.00	0.0203
764.00	0.0202
765.00	0.0200
766.00	0.0201
767.00	0.0200
768.00	0.0199
769.00	0.0199
770.00	0.0196
771.00	0.0191
772.00	0.0189
773.00	0.0189
774.00	0.0185
775.00	0.0187
776.00	0.0187
777.00	0.0189
778.00	0.0187
779.00	0.0189
780.00	0.0185
781.00	0.0185
782.00	0.0180
783.00	0.0180
784.00	0.0178
785.00	0.0183
786.00	0.0186
787.00	0.0185
788.00	0.0184
789.00	0.0183
790.00	0.0180
791.00	0.0177
792.00	0.0175
793.00	0.0173
794.00	0.0173
795.00	0.0169
796.00	0.0164
797.00	0.0157
798.00	0.0150
799.00	0.0143
800.00	0.0138
801.00	0.0134
802.00	0.0134
803.00	0.0131
804.00	0.0125
805.00	0.0121
806.00	0.0118
807.00	0.0115
808.00	0.0115
809.00	0.0113
810.00	0.0112
811.00	0.0109
812.00	0.0106
813.00	0.0100
814.00	0.0096
815.00	0.0094
816.00	0.0092
817.00	0.0095
818.00	0.0097
819.00	0.0100
820.00	0.0103
821.00	0.0104
822.00	0.0104
823.00	0.0104
824.00	0.0101
825.00	0.0099
826.00	0.0096
827.00	0.0095
828.00	0.0096
829.00	0.0097
830.00	0.0100
831.00	0.0103
832.00	0.0102
833.00	0.0102
834.00	0.0102
835.00	0.0102
836.00	0.0099
837.00	0.0100
838.00	0.0100
839.00	0.0100
840.00	0.0100
841.00	0.0105
842.00	0.0105
843.00	0.0103
844.00	0.0103
845.00	0.0102
846.00	0.0101
847.00	0.0100
848.00	0.0099
849.00	0.0099
850.00	0.0099
851.00	0.0098
852.00	0.0099
853.00	0.0100
854.00	0.0101
855.00	0.0101
856.00	0.0099
857.00	0.0098
858.00	0.0095
859.00	0.0094
860.00	0.0094
861.00	0.0095
862.00	0.0096
863.00	0.0098
864.00	0.0098
865.00	0.0097
866.00	0.0097
867.00	0.0095
868.00	0.0093
869.00	0.0092
870.00	0.0091
871.00	0.0089
872.00	0.0090
873.00	0.0091
874.00	0.0092
875.00	0.0092
876.00	0.0093
877.00	0.0092
878.00	0.0091
879.00	0.0089
880.00	0.0088
881.00	0.0089
882.00	0.0090
883.00	0.0090
884.00	0.0091
885.00	0.0090
886.00	0.0088
887.00	0.0086
888.00	0.0084
889.00	0.0085
890.00	0.0087
891.00	0.0087
892.00	0.0088
893.00	0.0089
894.00	0.0087
895.00	0.0087
896.00	0.0087
897.00	0.0086
898.00	0.0084
899.00	0.0084
900.00	0.0084
901.00	0.0083
902.00	0.0082
903.00	0.0083
904.00	0.0084
905.00	0.0083
906.00	0.0084
907.00	0.0086
908.00	0.0087
909.00	0.0086
910.00	0.0085
911.00	0.0085
912.00	0.0084
913.00	0.0083
914.00	0.0082
915.00	0.0083
916.00	0.0081
917.00	0.0081
918.00	0.0082
919.00	0.0084
920.00	0.0084
921.00	0.0086
922.00	0.0086
923.00	0.0085
924.00	0.0082
925.00	0.0080
926.00	0.0080
927.00	0.0079
928.00	0.0079
929.00	0.0079
930.00	0.0079
931.00	0.0078
932.00	0.0077
933.00	0.0077
934.00	0.0078
935.00	0.0079
936.00	0.0078
937.00	0.0079
938.00	0.0079
939.00	0.0078
940.00	0.0077
941.00	0.0078
942.00	0.0079
943.00	0.0079
944.00	0.0080
945.00	0.0080
946.00	0.0078
947.00	0.0078
948.00	0.0078
949.00	0.0078
950.00	0.0078
951.00	0.0080
952.00	0.0081
953.00	0.0080
954.00	0.0081
955.00	0.0080
956.00	0.0079
957.00	0.0080
958.00	0.0079
959.00	0.0077
960.00	0.0078
961.00	0.0078
962.00	0.0077
963.00	0.0077
964.00	0.0079
965.00	0.0079
966.00	0.0079
967.00	0.0079
968.00	0.0076
969.00	0.0079
970.00	0.0078
971.00	0.0076
972.00	0.0075
973.00	0.0077
974.00	0.0073
975.00	0.0072
976.00	0.0074
977.00	0.0075
978.00	0.0075
979.00	0.0076
980.00	0.0078
981.00	0.0077
982.00	0.0078
983.00	0.0077
984.00	0.0078
985.00	0.0079
986.00	0.0083
987.00	0.0080
988.00	0.0082
989.00	0.0081
990.00	0.0079
991.00	0.0076
992.00	0.0078
993.00	0.0077
994.00	0.0078
995.00	0.0078
996.00	0.0078
997.00	0.0078
998.00	0.0078
999.00	0.0079
1000.00	0.0078
1001.00	0.0075
1002.00	0.0070
1003.00	0.0067
1004.00	0.0067
1005.00	0.0067
1006.00	0.0069
1007.00	0.0074
1008.00	0.0075
1009.00	0.0074
1010.00	0.0074
1011.00	0.0075
1012.00	0.0074
1013.00	0.0074
1014.00	0.0073
1015.00	0.0073
1016.00	0.0073
1017.00	0.0071
1018.00	0.0068
1019.00	0.0069
1020.00	0.0069
1021.00	0.0070
1022.00	0.0072
1023.00	0.0075
1024.00	0.0076
1025.00	0.0072
1026.00	0.0072
1027.00	0.0071
1028.00	0.0070
1029.00	0.0068
1030.00	0.0072
1031.00	0.0071
1032.00	0.0069
1033.00	0.0067
1034.00	0.0069
1035.00	0.0067
1036.00	0.0066
1037.00	0.0068
1038.00	0.0068
1039.00	0.0068
1040.00	0.0068
1041.00	0.0069
1042.00	0.0070
1043.00	0.0071
1044.00	0.0071
1045.00	0.0073
1046.00	0.0075
1047.00	0.0077
1048.00	0.0072
1049.00	0.0073
1050.00	0.0069
1051.00	0.0067
1052.00	0.0063
1053.00	0.0068
1054.00	0.0066
1055.00	0.0069
1056.00	0.0070
1057.00	0.0070
1058.00	0.0075
1059.00	0.0075
1060.00	0.0072
1061.00	0.0074
1062.00	0.0073
1063.00	0.0067
1064.00	0.0066
1065.00	0.0066
1066.00	0.0063
1067.00	0.0065
1068.00	0.0067
1069.00	0.0068
1070.00	0.0067
1071.00	0.0068
1072.00	0.0065
1073.00	0.0062
1074.00	0.0064
1075.00	0.0062
1076.00	0.0063
1077.00	0.0064
1078.00	0.0064
1079.00	0.0060
1080.00	0.0061
1081.00	0.0061
1082.00	0.0059
1083.00	0.0060
1084.00	0.0062
1085.00	0.0062
1086.00	0.0061
1087.00	0.0062
1088.00	0.0061
1089.00	0.0063
1090.00	0.0063
1091.00	0.0064
1092.00	0.0064
1093.00	0.0063
1094.00	0.0062
1095.00	0.0060
1096.00	0.0060
1097.00	0.0060
1098.00	0.0062
1099.00	0.0064
1100.00	0.0066
1101.00	0.0064
1102.00	0.0064
1103.00	0.0064
1104.00	0.0062
1105.00	0.0062
1106.00	0.0062
1107.00	0.0061
1108.00	0.0061
1109.00	0.0060
1110.00	0.0058
1111.00	0.0058
1112.00	0.0058
1113.00	0.0058
1114.00	0.0057
1115.00	0.0058
1116.00	0.0058
1117.00	0.0056
1118.00	0.0057
1119.00	0.0056
1120.00	0.0056
1121.00	0.0056
1122.00	0.0057
1123.00	0.0055
1124.00	0.0054
1125.00	0.0054
1126.00	0.0054
1127.00	0.0055
1128.00	0.0053
1129.00	0.0055
1130.00	0.0055
1131.00	0.0054
1132.00	0.0053
1133.00	0.0055
1134.00	0.0056
1135.00	0.0056
1136.00	0.0056
1137.00	0.0056
1138.00	0.0057
1139.00	0.0055
1140.00	0.0055
1141.00	0.0055
1142.00	0.0054
1143.00	0.0054
1144.00	0.0056
1145.00	0.0056
1146.00	0.0056
1147.00	0.0059
1148.00	0.0059
1149.00	0.0059
1150.00	0.0059
1151.00	0.0060
1152.00	0.0059
1153.00	0.0058
1154.00	0.0057
1155.00	0.0060
1156.00	0.0058
1157.00	0.0058
1158.00	0.0059
1159.00	0.0059
1160.00	0.0058
1161.00	0.0058
1162.00	0.0057
1163.00	0.0056
1164.00	0.0056
1165.00	0.0055
1166.00	0.0055
1167.00	0.0054
1168.00	0.0056
1169.00	0.0057
1170.00	0.0058
1171.00	0.0058
1172.00	0.0058
1173.00	0.0058
1174.00	0.0057
1175.00	0.0058
1176.00	0.0057
1177.00	0.0059
1178.00	0.0058
1179.00	0.0059
1180.00	0.0057
1181.00	0.0060
1182.00	0.0060
1183.00	0.0060
1184.00	0.0059
1185.00	0.0062
1186.00	0.0061
1187.00	0.0065
1188.00	0.0066
1189.00	0.0064
1190.00	0.0062
1191.00	0.0061
1192.00	0.0057
1193.00	0.0056
1194.00	0.0058
1195.00	0.0059
1196.00	0.0060
1197.00	0.0059
1198.00	0.0059
1199.00	0.0059
1200.00	0.0057
1201.00	0.0058
1202.00	0.0058
1203.00	0.0061
1204.00	0.0062
1205.00	0.0063
1206.00	0.0063
1207.00	0.0064
1208.00	0.0063
1209.00	0.0061
1210.00	0.0061
1211.00	0.0061
1212.00	0.0061
1213.00	0.0060
1214.00	0.0059
1215.00	0.0059
1216.00	0.0057
1217.00	0.0055
1218.00	0.0055
1219.00	0.0055
1220.00	0.0055
1221.00	0.0057
1222.00	0.0060
1223.00	0.0060
1224.00	0.0062
1225.00	0.0061
1226.00	0.0060
1227.00	0.0059
1228.00	0.0058
1229.00	0.0058
1230.00	0.0058
1231.00	0.0057
1232.00	0.0060
1233.00	0.0059
1234.00	0.0058
1235.00	0.0059
1236.00	0.0059
1237.00	0.0057
1238.00	0.0057
1239.00	0.0058
1240.00	0.0058
1241.00	0.0057
1242.00	0.0057
1243.00	0.0057
1244.00	0.0058
1245.00	0.0058
1246.00	0.0059
1247.00	0.0059
1248.00	0.0058
1249.00	0.0057
1250.00	0.0055
1251.00	0.0054
1252.00	0.0054
1253.00	0.0054
1254.00	0.0056
1255.00	0.0055
1256.00	0.0055
1257.00	0.0057
1258.00	0.0056
1259.00	0.0055
1260.00	0.0055
1261.00	0.0056
1262.00	0.0054
1263.00	0.0052
1264.00	0.0051
1265.00	0.0052
1266.00	0.0052
1267.00	0.0053
1268.00	0.0056
1269.00	0.0056
1270.00	0.0057
1271.00	0.0056
1272.00	0.0056
1273.00	0.0055
1274.00	0.0056
1275.00	0.0055
1276.00	0.0055
1277.00	0.0054
1278.00	0.0056
1279.00	0.0056
1280.00	0.0056
1281.00	0.0057
1282.00	0.0057
1283.00	0.0056
1284.00	0.0054
1285.00	0.0051
1286.00	0.0049
1287.00	0.0049
1288.00	0.0046
1289.00	0.0046
1290.00	0.0047
1291.00	0.0048
1292.00	0.0048
1293.00	0.0048
1294.00	0.0047
1295.00	0.0045
1296.00	0.0046
1297.00	0.0044
1298.00	0.0047
1299.00	0.0048
1300.00	0.0050
1301.00	0.0049
1302.00	0.0049
1303.00	0.0049
1304.00	0.0050
1305.00	0.0049
1306.00	0.0050
1307.00	0.0049
1308.00	0.0046
1309.00	0.0048
1310.00	0.0050
1311.00	0.0048
1312.00	0.0050
1313.00	0.0050
1314.00	0.0048
1315.00	0.0048
1316.00	0.0048
1317.00	0.0047
1318.00	0.0046
1319.00	0.0045
1320.00	0.0041
1321.00	0.0041
1322.00	0.0040
1323.00	0.0038
1324.00	0.0038
1325.00	0.0039
1326.00	0.0038
1327.00	0.0039
1328.00	0.0041
1329.00	0.0039
1330.00	0.0040
1331.00	0.0040
1332.00	0.0038
1333.00	0.0037
1334.00	0.0039
1335.00	0.0036
1336.00	0.0038
1337.00	0.0040
1338.00	0.0039
1339.00	0.0042
1340.00	0.0045
1341.00	0.0043
1342.00	0.0042
1343.00	0.0044
1344.00	0.0039
1345.00	0.0041
1346.00	0.0038
1347.00	0.0038
1348.00	0.0037
1349.00	0.0037
1350.00	0.0033
1351.00	0.0035
1352.00	0.0038
1353.00	0.0036
1354.00	0.0038
1355.00	0.0037
1356.00	0.0037
1357.00	0.0036
1358.00	0.0038
1359.00	0.0038
1360.00	0.0041
1361.00	0.0041
1362.00	0.0041
1363.00	0.0041
1364.00	0.0041
1365.00	0.0044
1366.00	0.0045
1367.00	0.0047
1368.00	0.0047
1369.00	0.0049
1370.00	0.0045
1371.00	0.0046
1372.00	0.0045
1373.00	0.0043
1374.00	0.0045
1375.00	0.0046
1376.00	0.0048
1377.00	0.0050
1378.00	0.0054
1379.00	0.0053
1380.00	0.0053
1381.00	0.0050
1382.00	0.0048
1383.00	0.0048
1384.00	0.0047
1385.00	0.0041
1386.00	0.0039
1387.00	0.0042
1388.00	0.0041
1389.00	0.0044
1390.00	0.0049
1391.00	0.0051
1392.00	0.0051
1393.00	0.0048
1394.00	0.0047
1395.00	0.0046
1396.00	0.0048
1397.00	0.0047
1398.00	0.0048
1399.00	0.0048
1400.00	0.0051
1401.00	0.0049
1402.00	0.0049
1403.00	0.0048
1404.00	0.0047
1405.00	0.0046
1406.00	0.0047
1407.00	0.0048
1408.00	0.0049
1409.00	0.0051
1410.00	0.0049
1411.00	0.0050
1412.00	0.0046
1413.00	0.0047
1414.00	0.0046
1415.00	0.0042
1416.00	0.0039
1417.00	0.0040
1418.00	0.0039
1419.00	0.0041
1420.00	0.0044
1421.00	0.0045
1422.00	0.0048
1423.00	0.0046
1424.00	0.0045
1425.00	0.0046
1426.00	0.0048
1427.00	0.0046
1428.00	0.0045
1429.00	0.0044
1430.00	0.0044
1431.00	0.0044
1432.00	0.0045
1433.00	0.0045
1434.00	0.0046
1435.00	0.0049
1436.00	0.0048
1437.00	0.0048
1438.00	0.0049
1439.00	0.0048
1440.00	0.0047
1441.00	0.0044
1442.00	0.0041
1443.00	0.0039
1444.00	0.0039
1445.00	0.0037
1446.00	0.0039
1447.00	0.0039
1448.00	0.0043
1449.00	0.0044
1450.00	0.0044
1451.00	0.0044
1452.00	0.0044
1453.00	0.0042
1454.00	0.0040
1455.00	0.0040
1456.00	0.0040
1457.00	0.0042
1458.00	0.0042
1459.00	0.0042
1460.00	0.0044
1461.00	0.0038
1462.00	0.0039
1463.00	0.0040
1464.00	0.0038
1465.00	0.0035
1466.00	0.0040
1467.00	0.0035
1468.00	0.0032
1469.00	0.0032
1470.00	0.0037
1471.00	0.0041
1472.00	0.0043
1473.00	0.0045
1474.00	0.0047
1475.00	0.0044
1476.00	0.0038
1477.00	0.0037
1478.00	0.0033
1479.00	0.0032
1480.00	0.0030
1481.00	0.0032
1482.00	0.0033
1483.00	0.0038
1484.00	0.0039
1485.00	0.0041
1486.00	0.0038
1487.00	0.0038
1488.00	0.0037
1489.00	0.0036
1490.00	0.0033
1491.00	0.0034
1492.00	0.0034
1493.00	0.0032
1494.00	0.0032
1495.00	0.0034
1496.00	0.0036
1497.00	0.0038
1498.00	0.0037
1499.00	0.0038
1500.00	0.0039
1501.00	0.0039
1502.00	0.0037
1503.00	0.0038
1504.00	0.0036
1505.00	0.0036
1506.00	0.0038
1507.00	0.0038
1508.00	0.0036
1509.00	0.0039
1510.00	0.0039
1511.00	0.0038
1512.00	0.0038
1513.00	0.0041
1514.00	0.0042
1515.00	0.0042
1516.00	0.0038
1517.00	0.0041
1518.00	0.0042
1519.00	0.0041
1520.00	0.0041
1521.00	0.0043
1522.00	0.0044
1523.00	0.0045
1524.00	0.0043
1525.00	0.0043
1526.00	0.0044
1527.00	0.0043
1528.00	0.0042
1529.00	0.0039
1530.00	0.0039
1531.00	0.0038
1532.00	0.0040
1533.00	0.0038
1534.00	0.0041
1535.00	0.0042
1536.00	0.0041
1537.00	0.0039
1538.00	0.0039
1539.00	0.0038
1540.00	0.0038
1541.00	0.0039
1542.00	0.0037
1543.00	0.0040
1544.00	0.0041
1545.00	0.0041
1546.00	0.0042
1547.00	0.0041
1548.00	0.0041
1549.00	0.0040
1550.00	0.0040
1551.00	0.0039
1552.00	0.0041
1553.00	0.0040
1554.00	0.0036
1555.00	0.0033
1556.00	0.0033
1557.00	0.0033
1558.00	0.0033
1559.00	0.0037
1560.00	0.0038
1561.00	0.0039
1562.00	0.0039
1563.00	0.0039
1564.00	0.0039
1565.00	0.0041
1566.00	0.0040
1567.00	0.0039
1568.00	0.0038
1569.00	0.0038
1570.00	0.0037
1571.00	0.0038
1572.00	0.0037
1573.00	0.0037
1574.00	0.0038
1575.00	0.0041
1576.00	0.0041
1577.00	0.0042
1578.00	0.0045
1579.00	0.0045
1580.00	0.0042
1581.00	0.0042
1582.00	0.0041
1583.00	0.0039
1584.00	0.0037
1585.00	0.0037
1586.00	0.0038
1587.00	0.0039
1588.00	0.0040
1589.00	0.0044
